'FP1-F7','F7-T7','T7-P7','P7-O1','FP1-F3','F3-C3','C3-P3','P3-O1','FP2-F4','F4-C4','C4-P4','P4-O2','FP2-F8','F8-T8','T8-P8','P8-O2','FZ-CZ','CZ-PZ','P7-T7','T7-FT9','FT9-FT10','FT10-T8','T8-P8'
16.801,48.449,-9.377,-14.066,34.774,16.801,-19.145,9.768,41.807,-18.364,-13.675,29.695,27.741,-25.788,5.861,30.476,9.377,-30.867,10.159,-20.317,-48.84,10.159,5.861
19.536,43.37,-17.582,-19.145,38.291,5.47,-23.834,5.861,53.919,-27.741,-17.973,10.549,30.085,-19.145,-0.781,8.205,1.954,-34.383,18.364,-25.397,-42.979,7.424,-0.781
10.159,35.946,-22.662,-27.35,26.178,3.126,-29.304,-4.298,32.039,-25.397,-14.066,-8.205,7.424,-9.768,-1.954,-12.112,0.391,-32.821,23.443,-25.006,-46.105,8.987,-1.954
-19.927,29.695,-25.397,-25.006,-16.41,11.722,-31.258,-5.47,8.987,-22.662,-12.503,11.722,1.563,-14.457,-9.768,7.424,-1.563,-28.132,26.178,-12.112,-55.482,9.377,-9.768
-42.198,26.569,-30.867,-17.973,-50.403,19.536,-30.476,-3.126,-23.443,-14.066,-11.722,23.053,-14.457,-12.112,-17.973,17.192,3.126,-27.35,31.648,-6.642,-58.608,15.238,-17.973
-32.821,28.913,-25.788,-15.629,-33.993,18.364,-27.35,-2.735,-38.291,-7.033,-11.331,3.516,-36.728,0.391,-12.503,-3.907,10.549,-30.867,26.569,-21.88,-43.37,17.973,-12.503
-32.43,39.853,-21.88,-20.708,-24.615,25.788,-24.225,-12.503,-36.337,-7.033,-10.549,-8.987,-39.463,13.284,-25.788,-11.722,12.112,-29.304,22.662,-25.006,-34.383,30.867,-25.788
-41.026,49.621,-37.509,-11.331,-35.556,28.913,-20.317,-12.894,-38.291,-9.377,-14.066,-5.47,-32.821,-14.457,-23.443,2.735,11.331,-29.304,38.291,-24.225,-35.556,14.457,-23.443
-60.171,35.165,-32.821,-0.781,-55.482,30.476,-22.271,-10.94,-31.648,-12.112,-22.662,-6.642,-28.523,-35.556,-16.41,5.861,9.377,-33.602,33.602,-20.317,-21.099,1.172,-16.41
-66.422,28.523,-21.88,2.735,-52.747,20.317,-19.927,-3.516,-26.178,-16.801,-33.211,-1.172,-31.258,-28.913,-19.927,1.563,5.079,-33.602,22.662,-26.96,3.516,3.907,-19.927
-57.827,17.973,-17.582,20.708,-44.151,-1.954,-14.066,24.615,-28.913,-20.317,-53.919,19.927,-40.244,-26.96,-14.457,-1.954,-1.172,-32.43,18.364,-52.357,33.602,9.768,-14.457
-33.602,7.033,1.563,26.178,-10.159,-13.675,-0.781,27.741,5.861,-16.41,-46.105,13.284,-8.205,-20.708,-7.424,-7.033,4.689,-21.88,-0.781,-50.794,49.231,14.847,-7.424
-26.178,17.582,19.536,5.47,15.238,-11.331,10.549,1.954,37.118,-8.205,-28.523,-21.099,10.159,-1.172,-5.079,-24.615,11.722,-8.987,-18.755,-43.37,49.231,21.099,-5.079
-36.728,29.695,0,4.298,-1.172,7.424,1.172,-9.377,39.463,-7.814,-16.02,-15.238,21.099,-29.304,4.298,3.516,6.252,-3.126,0.781,-29.695,-1.563,16.41,4.298
-66.032,37.509,-12.894,7.424,-45.324,28.913,1.563,-19.145,9.377,-5.079,-8.205,-26.96,1.172,-43.761,0.391,11.331,9.768,-0.781,13.675,-21.88,-18.755,11.331,0.391
-83.614,40.244,-19.145,3.516,-75.8,44.542,0.391,-26.96,-23.053,0,-9.768,-39.853,-25.006,-58.217,0.391,8.205,11.722,-4.689,19.927,-15.629,-28.523,-1.954,0.391
-66.032,46.496,-40.244,10.94,-72.283,42.198,0,-17.192,-32.821,-4.298,-14.066,-15.629,-30.867,-62.125,-5.079,30.867,10.159,-10.159,41.026,-38.291,-26.96,-0.391,-5.079
-66.813,22.271,-10.94,15.238,-77.363,42.979,4.689,-10.549,-14.847,-10.159,-16.41,0.391,-26.569,-41.026,-18.364,43.37,15.238,-10.549,11.722,-22.271,-15.629,13.675,-18.364
-42.589,18.755,10.94,9.377,-17.192,27.35,3.907,-15.238,25.006,-12.112,-8.596,-17.973,-8.205,-12.112,-18.364,23.443,16.801,-12.112,-10.159,-17.973,-4.298,21.88,-18.364
-4.298,23.053,12.112,9.377,44.933,11.331,0,-15.238,64.078,-18.364,-6.642,-23.834,7.814,10.94,-19.145,14.457,10.94,-13.284,-11.331,-28.132,-4.298,35.946,-19.145
0.781,17.192,13.284,10.549,58.608,8.596,-2.735,-19.927,74.237,-20.708,-9.377,-4.689,23.053,5.861,-22.271,29.695,1.172,-11.722,-12.503,-17.192,-7.424,41.807,-22.271
3.126,21.49,3.516,3.516,69.158,5.079,-2.735,-37.509,56.264,-19.536,-8.205,-11.331,20.317,-23.443,-8.205,27.741,-5.079,-11.331,-2.735,-12.894,0.391,17.582,-8.205
1.563,19.536,3.907,1.172,57.436,11.331,-1.954,-38.681,36.728,-27.35,-7.814,-26.178,-1.954,-38.681,-1.172,14.847,-8.596,-14.066,-3.126,-10.159,-5.079,8.987,-1.172
-37.118,12.894,1.172,10.549,0.391,21.49,-3.907,-28.913,5.861,-33.211,-10.549,-20.708,-31.258,-42.979,-3.907,17.973,-8.987,-14.457,-0.391,-10.549,-4.689,7.814,-3.907
-80.488,5.47,0.781,19.536,-49.231,16.02,3.126,-23.053,-17.192,-27.35,-10.94,-12.503,-39.853,-37.9,-16.02,24.225,-2.344,-12.894,0,-7.033,6.642,9.377,-16.02
-98.462,-3.907,5.079,26.178,-65.641,1.172,9.768,-15.238,-36.728,-17.192,-13.675,-7.424,-45.324,-35.556,-16.02,21.49,4.298,-17.582,-4.298,-14.066,23.834,9.377,-16.02
-80.879,9.768,-16.02,41.026,-51.575,-16.02,13.675,8.987,-16.801,-8.596,-33.993,19.145,-32.43,-5.079,-18.755,15.629,4.298,-24.225,16.801,-60.171,53.138,23.053,-18.755
-64.86,11.722,-13.284,35.165,-25.006,-29.695,23.834,0.391,-7.424,2.735,-33.211,17.582,-20.708,8.205,-10.159,2.344,11.331,-23.053,14.066,-70.33,77.753,22.662,-10.159
-32.039,6.642,0,13.284,4.689,-6.252,23.834,-31.648,9.377,5.079,-16.801,-12.894,-7.033,19.927,-19.927,-7.424,19.927,-16.41,0.781,-37.509,59.389,26.96,-19.927
-39.853,5.079,-1.563,17.192,-6.252,11.722,13.284,-37.118,24.225,-1.563,-8.987,-5.861,7.033,1.172,-16.02,15.238,17.582,-16.02,2.344,-15.238,32.039,18.755,-16.02
-49.621,-0.781,1.172,10.159,-19.145,23.834,8.596,-51.184,20.317,-0.391,-0.391,-5.47,12.894,-16.41,-10.549,28.132,20.317,-12.503,-0.391,4.689,18.364,11.722,-10.549
-68.767,-2.344,0.391,12.112,-36.337,22.271,7.814,-52.357,8.987,4.298,2.344,-15.238,7.814,-14.847,-19.536,27.35,19.145,-8.596,0.391,12.112,11.331,17.582,-19.536
-54.31,6.642,-9.377,17.973,-21.099,10.159,9.377,-37.509,6.642,6.252,-2.735,-16.41,6.252,-31.258,1.954,15.629,11.722,-8.205,10.159,0.391,8.596,0.391,1.954
1.172,11.331,-14.457,18.364,42.589,-7.033,13.284,-31.258,5.861,11.722,-4.298,6.252,15.238,-33.993,14.066,24.225,5.861,-7.033,15.238,-7.814,9.768,-2.344,14.066
24.615,9.768,-12.894,14.066,65.641,-8.596,15.238,-34.774,2.344,14.847,0,17.582,19.536,-28.132,6.642,36.337,3.516,-4.298,13.675,-1.563,2.735,1.172,6.642
10.94,9.377,-16.02,16.02,37.118,-3.516,16.02,-27.35,1.563,8.205,1.954,8.596,9.377,-17.973,9.768,19.145,-0.781,-9.768,16.801,-7.033,-3.907,5.47,9.768
3.907,8.596,-13.675,17.582,26.178,-5.079,12.503,-16.02,2.735,1.563,-0.781,14.457,2.344,-5.079,7.033,13.284,-3.126,-12.503,14.457,-17.973,4.298,12.503,7.033
-32.43,4.298,-8.987,13.675,-16.02,-6.642,17.973,-16.801,8.987,-3.516,-0.391,22.271,10.549,-8.205,-1.172,25.788,-1.172,-10.159,9.768,-8.596,2.735,14.066,-1.172
-60.952,-1.563,-7.424,8.987,-54.31,-1.954,17.973,-21.88,2.735,-13.284,2.344,18.755,1.954,-19.927,0.781,26.569,-3.516,-10.159,8.205,4.689,0.781,5.861,0.781
-36.337,-0.391,-8.205,12.112,-33.211,-3.126,13.284,-9.377,1.172,-25.006,-3.516,24.615,-7.033,-28.132,5.861,25.788,-11.331,-14.457,8.987,0.391,-2.735,1.563,5.861
-50.012,-3.516,-11.331,18.364,-50.403,-11.331,14.847,0.781,-18.755,-22.662,-10.159,37.509,-16.02,-26.569,-3.516,30.085,-16.801,-14.847,12.112,-5.861,3.126,7.033,-3.516
-68.376,-13.284,-5.861,24.615,-77.363,-10.94,19.536,5.079,-35.556,-16.801,-13.675,39.072,-19.145,-33.602,-0.391,25.397,-17.192,-9.768,6.642,-3.516,17.192,-3.907,-0.391
-44.151,-16.801,-5.47,43.37,-52.357,-29.304,25.006,33.211,-46.886,-12.112,-30.085,66.422,-20.708,-25.397,-6.252,27.35,-19.927,-10.549,6.252,-23.443,44.151,-1.563,-6.252
-41.416,-5.47,-5.47,38.681,-38.291,-44.542,34.383,34.774,-54.701,-1.563,-28.913,57.827,-30.085,1.954,-5.861,6.252,-15.629,-3.907,6.252,-48.059,60.952,9.768,-5.861
-23.834,3.907,-2.344,17.973,-12.112,-37.118,38.681,7.033,-33.602,6.252,-14.457,27.741,-15.238,8.987,2.735,-11.722,-5.079,2.344,3.126,-33.993,46.105,3.516,2.735
4.298,14.847,-22.662,18.364,15.238,-23.834,25.788,-2.344,-20.708,1.954,-3.126,18.755,-8.205,1.563,0,3.126,-9.377,1.563,23.443,-13.675,0,4.689,0
6.642,9.377,-21.099,12.503,22.662,-19.927,18.755,-12.894,-25.006,2.344,1.954,12.503,-10.94,16.801,-27.35,13.284,-8.205,-1.563,21.88,-2.344,-5.861,23.053,-27.35
1.172,-3.126,-13.675,11.722,10.549,-8.987,15.238,-20.708,-7.033,3.126,1.954,14.457,10.94,-14.066,-12.894,27.35,-5.861,-1.954,14.457,16.801,-8.987,-0.781,-12.894
-25.788,-15.629,-6.642,15.629,-17.192,-8.205,12.503,-19.145,-7.033,-1.563,-4.689,7.033,12.503,-23.443,-19.145,21.88,-9.768,-4.689,7.424,22.662,3.907,-9.377,-19.145
-56.264,-16.02,2.735,12.503,-48.449,-7.814,16.41,-15.629,-7.814,-5.079,-8.987,0.391,4.689,-19.145,-12.894,4.689,-8.987,-3.126,-1.954,9.768,21.49,-12.894,-12.894
-30.476,-7.424,3.126,7.033,-24.615,-2.735,21.099,-20.708,-5.079,-5.079,-4.298,17.192,13.284,-39.463,7.424,18.755,-5.861,3.907,-2.344,8.596,18.755,-31.648,7.424
-32.43,-3.126,-7.033,8.596,-35.165,3.516,19.536,-22.271,-16.801,-5.861,0,32.821,8.205,-46.496,10.549,35.946,-8.987,10.159,7.814,16.02,-0.391,-30.476,10.549
-34.774,-1.563,-10.159,9.768,-42.589,4.298,17.973,-17.192,-37.9,-5.47,3.516,24.615,-20.708,-26.569,10.159,20.708,-14.066,12.112,10.94,3.907,-1.563,-13.284,10.159
-8.987,1.172,0.391,8.205,-17.973,10.549,21.099,-12.503,-41.807,-2.344,9.377,16.02,-31.648,-17.192,18.364,10.549,-11.722,16.02,0.391,-5.861,4.298,-7.424,18.364
-13.284,2.735,-6.252,6.642,-19.536,14.457,19.927,-25.006,-42.589,-1.954,14.847,16.02,-25.006,-27.741,19.536,18.364,-11.722,19.927,7.033,6.252,-9.377,-6.252,19.536
-32.43,0.391,-10.94,14.066,-31.258,9.768,16.41,-25.006,-39.463,-0.781,14.066,21.88,-16.02,-34.383,19.536,25.397,-12.112,15.629,11.722,4.298,3.126,-10.159,19.536
-32.821,6.252,-15.238,10.549,-28.132,1.172,18.755,-23.443,-32.039,-3.907,5.079,23.834,-16.02,-16.801,13.675,12.112,-8.596,8.596,16.02,-19.536,35.165,-8.205,13.675
-28.913,19.927,-27.741,21.49,-21.88,-5.47,23.053,-10.94,-29.304,-4.689,-3.907,33.602,-17.973,-7.814,10.159,9.768,-4.689,8.596,28.523,-43.761,64.86,-13.675,10.159
-40.635,-8.987,-19.536,39.853,-36.337,-25.006,25.006,6.252,-53.138,-0.781,-23.834,48.059,-38.291,-1.954,-4.689,14.457,-6.642,5.47,20.317,-37.118,93.382,-14.066,-4.689
-64.078,-23.053,12.112,33.993,-57.436,-29.695,39.853,7.033,-50.794,5.47,-20.317,21.49,-44.933,23.053,-10.549,-11.722,0.391,5.861,-11.331,-37.509,117.998,-1.563,-10.549
-52.357,-27.741,20.317,14.847,-42.198,-10.94,30.085,-19.927,-45.714,1.563,-10.94,3.516,-44.151,13.284,-8.205,-12.112,5.861,9.768,-19.536,-5.861,89.475,-8.987,-8.205
-55.092,-27.741,7.033,15.629,-38.681,-3.907,14.457,-32.43,-47.277,-0.781,-1.172,-2.344,-37.118,-8.596,-8.205,1.563,-1.563,9.377,-6.252,23.834,41.807,-11.722,-8.205
-53.919,-22.271,-1.954,8.987,-37.509,0.391,8.205,-41.026,-30.867,-3.126,7.033,-18.364,-20.317,-8.987,-8.205,-8.205,-0.781,8.205,2.735,28.132,28.132,-11.331,-8.205
-39.853,-7.814,-17.192,10.94,-22.271,2.344,6.252,-41.026,-10.549,-12.894,7.814,-5.079,-2.735,-14.847,-7.814,4.689,-3.907,6.642,17.973,25.006,21.49,-12.503,-7.814
-29.695,-5.079,-24.615,17.192,-12.112,-0.781,3.126,-32.821,-19.927,-13.675,3.516,13.675,-5.861,-21.49,-14.457,23.834,-8.987,5.47,25.397,17.192,23.834,-9.768,-14.457
-43.37,-15.629,-7.814,19.927,-22.271,-8.987,6.642,-21.49,-39.072,-12.112,-0.781,-1.172,-26.178,-12.894,-19.536,4.298,-10.159,3.126,8.596,14.457,45.714,-9.768,-19.536
-59.78,-26.569,6.252,11.722,-37.9,-10.549,6.642,-25.397,-31.648,-16.801,-2.344,-17.192,-32.039,-2.344,-23.053,-10.549,-12.112,-1.563,-5.47,16.02,49.621,-4.298,-23.053
-81.27,-30.476,6.642,5.861,-57.436,-9.377,1.172,-30.867,-41.807,-17.582,-4.298,-1.172,-32.039,-19.536,-26.569,11.722,-12.503,-3.516,-5.861,25.788,44.933,-16.02,-26.569
-94.945,-27.741,-1.172,8.205,-69.158,-13.675,-0.391,-30.867,-41.416,-14.457,-7.424,5.861,-21.099,-29.304,-28.523,20.317,-10.94,-5.47,1.954,25.006,43.37,-19.536,-28.523
-66.032,-23.834,-4.689,4.298,-42.589,-15.629,-0.391,-31.258,-28.523,-12.894,-5.079,-10.94,-21.49,-15.238,-17.192,-4.298,-6.642,-9.377,5.47,12.894,44.542,-12.112,-17.192
-31.648,-17.192,-11.331,-3.126,-10.94,-12.503,-4.689,-34.774,-13.284,-15.629,-1.172,-19.145,-17.973,-18.755,-1.954,-12.503,-4.689,-7.424,12.112,12.112,29.695,-14.847,-1.954
13.284,-19.927,-16.801,-0.781,30.867,-14.847,-7.814,-31.648,0.391,-16.801,-1.172,-14.066,-1.563,-24.615,-3.907,-3.907,-8.205,-4.689,17.582,21.88,22.662,-17.192,-3.907
16.02,-30.476,-13.675,5.47,20.708,-16.41,-7.033,-18.755,3.907,-19.145,-5.861,-5.861,0.781,-11.331,-17.582,0,-10.94,-7.814,14.457,27.35,22.662,-4.298,-17.582
-9.377,-35.165,-11.722,8.596,-11.722,-21.49,-2.735,-9.377,-8.596,-16.41,-14.457,1.563,-14.066,9.768,-29.304,-5.079,-10.94,-10.94,12.503,11.722,42.979,6.642,-29.304
-45.714,-36.337,-16.41,21.88,-53.138,-36.728,2.344,10.94,-32.039,-11.722,-36.728,21.099,-38.291,21.099,-33.993,-9.377,-9.377,-19.145,17.192,-15.629,69.939,13.675,-33.993
-58.608,-36.337,-12.894,26.178,-54.31,-49.231,10.549,10.159,-51.966,0,-35.946,18.755,-44.933,28.132,-42.198,-10.94,-1.563,-20.317,13.675,-14.847,85.177,10.94,-42.198
-48.059,-42.589,-1.954,14.457,-32.43,-53.138,17.582,-9.768,-50.794,9.768,-20.708,-10.94,-47.668,19.145,-13.675,-30.867,2.735,-21.49,2.735,-11.331,89.084,-5.47,-13.675
-23.834,-37.9,-13.675,3.907,3.516,-44.542,1.563,-33.602,-39.072,5.47,-8.205,-10.94,-32.43,-14.066,0,-7.424,-2.735,-19.145,14.457,14.066,44.151,-19.927,0
-19.145,-38.291,-17.582,1.172,7.424,-35.556,-2.344,-42.979,-33.602,5.079,1.172,-23.834,-24.225,-21.49,-1.563,-5.079,-5.079,-15.629,18.364,28.132,27.741,-22.271,-1.563
-28.132,-37.118,-23.443,0.391,-10.94,-25.006,-5.079,-46.886,-33.993,4.298,3.516,-37.9,-27.741,-23.053,-0.781,-12.894,-5.861,-12.112,24.225,26.178,19.927,-22.271,-0.781
-32.43,-33.993,-25.788,-4.689,-23.053,-15.629,-7.424,-50.794,-39.072,1.563,-1.954,-19.536,-26.96,-29.304,-10.159,7.033,-2.344,-8.596,26.569,23.443,12.503,-14.457,-10.159
-39.853,-38.681,-12.894,4.689,-35.165,-16.41,2.344,-36.728,-31.648,5.47,-5.861,-7.033,-7.814,-31.258,-21.49,20.708,1.563,-3.516,13.675,22.271,26.178,-13.675,-21.49
-53.919,-42.198,-3.126,8.205,-44.933,-16.02,4.298,-32.43,-16.02,3.126,-4.298,-26.96,-3.126,-25.788,-19.536,3.126,2.344,-1.563,3.907,19.145,34.383,-16.41,-19.536
-64.86,-37.509,-1.172,9.768,-51.184,-18.364,5.47,-28.132,-16.02,2.344,-5.079,-32.821,-10.549,-20.317,-16.41,-4.689,2.344,-3.126,1.954,12.894,38.291,-17.192,-16.41
-55.092,-31.648,-3.126,15.629,-44.542,-16.801,8.987,-21.49,-14.066,3.907,-5.47,-9.377,-2.735,-24.615,-15.238,16.41,2.735,-3.126,3.907,17.582,28.523,-16.41,-15.238
-29.695,-31.258,-1.563,11.722,-22.662,-12.503,11.722,-26.178,-23.053,4.689,-0.781,-5.861,-8.596,-28.913,-10.159,22.662,2.344,-3.907,2.344,19.145,30.867,-23.053,-10.159
-19.927,-27.741,-5.861,7.033,-14.457,-0.781,2.344,-32.821,-38.291,2.735,1.954,-14.457,-33.211,-17.973,-10.94,14.066,1.954,-7.033,6.642,20.317,18.364,-16.41,-10.94
-21.49,-26.178,-10.94,12.503,-8.987,-3.126,-5.079,-27.741,-35.946,-2.344,-1.563,-6.642,-36.728,-15.238,-15.238,19.536,-1.954,-9.768,11.722,16.41,8.205,-3.126,-15.238
-25.397,-35.556,-10.549,25.397,-8.596,-12.894,-0.781,-23.053,-17.973,-2.344,-8.205,-5.861,-21.49,-14.847,-19.536,20.708,-1.563,-9.768,11.331,15.629,25.397,-6.252,-19.536
-64.469,-37.9,-12.894,34.383,-43.761,-21.099,1.563,-17.192,-3.126,0,-16.801,-7.424,-12.894,-7.033,-22.271,14.066,1.563,-12.112,13.675,9.768,37.509,-2.344,-22.271
-69.158,-30.476,-13.284,47.277,-43.37,-40.244,6.642,10.549,-5.861,7.033,-39.463,13.675,-24.615,11.331,-22.271,10.159,1.954,-19.145,14.066,-23.834,57.045,12.112,-22.271
-67.204,-25.788,2.735,38.681,-50.794,-44.542,30.867,12.112,-14.847,23.834,-34.383,8.205,-31.648,24.615,-12.894,1.954,10.94,-12.112,-1.954,-42.589,75.018,12.894,-12.894
-44.933,-19.927,7.033,21.88,-29.304,-22.662,29.304,-12.503,-23.443,29.695,-11.722,-15.629,-35.556,28.913,-17.582,2.344,15.629,0.781,-6.252,-19.145,43.761,11.331,-17.582
-32.821,-19.145,2.735,22.662,-17.582,-11.722,19.536,-15.238,-47.277,30.476,3.126,-4.298,-46.886,14.847,-16.801,31.648,4.689,9.377,-1.954,-6.252,14.066,5.861,-16.801
-53.138,-20.708,0.391,23.834,-42.589,-3.516,17.192,-20.317,-56.654,35.556,14.847,2.735,-40.635,8.596,-22.271,51.575,3.126,19.145,0.391,6.642,2.344,5.861,-22.271
-43.37,-20.317,-10.549,24.225,-29.304,-3.126,10.159,-26.569,-50.403,34.383,19.536,-12.112,-32.039,3.907,-21.49,40.635,0.781,26.178,11.331,17.192,-7.814,3.516,-21.49
-45.714,-17.582,-20.708,33.211,-30.085,-9.768,7.033,-17.192,-42.979,29.695,10.549,-21.49,-31.258,-3.907,-14.847,26.569,-5.079,25.788,21.49,8.596,0.391,-3.907,-14.847
-46.105,-19.927,-15.629,27.741,-35.946,-9.377,10.549,-19.145,-33.993,26.569,1.172,-12.894,-20.708,-8.205,-21.099,31.258,-2.344,23.834,16.41,10.94,8.987,0.391,-21.099
-43.37,-25.006,2.735,23.443,-35.556,-0.781,17.582,-22.271,-15.629,20.317,0,-14.457,-7.424,-11.331,-25.788,33.993,0.391,27.35,-1.954,20.708,12.894,4.298,-25.788
-48.84,-20.708,0.781,29.695,-41.416,4.689,15.629,-17.582,-12.894,14.066,-6.252,-28.913,-17.192,-9.768,-28.523,20.708,-1.172,24.225,0,11.722,19.145,2.344,-28.523
-54.31,-16.41,-1.172,29.695,-51.184,4.689,16.02,-11.722,-12.894,12.894,-14.847,-28.132,-21.099,-4.689,-33.211,15.629,-1.172,20.317,1.954,-2.735,25.788,8.596,-33.211
-66.422,-10.94,0.391,23.053,-63.297,3.126,23.053,-17.582,-10.94,17.582,-11.722,-20.317,-7.033,-13.284,-29.304,23.834,4.298,23.053,0.391,2.344,18.364,4.689,-29.304
-43.761,6.642,-20.708,17.192,-39.853,4.298,23.053,-27.741,-10.159,19.145,-3.516,-24.615,0,-26.178,-19.145,26.96,7.033,22.271,21.49,-5.47,7.814,-6.252,-19.145
-17.973,1.954,-21.49,14.066,-20.708,5.861,15.629,-24.615,-20.708,22.662,-5.47,-23.053,-9.377,-21.099,-19.536,23.834,3.907,12.503,22.271,-3.516,-0.781,0,-19.536
-21.88,-14.457,-1.563,13.284,-25.788,5.861,13.675,-18.755,-37.118,28.523,-10.159,-15.629,-23.053,-12.503,-14.457,16.41,6.252,7.814,2.344,7.033,6.642,8.596,-14.457
-16.02,-28.913,8.987,20.708,-21.88,4.689,13.284,-10.94,-30.867,33.602,-16.02,-16.41,-20.708,1.172,-20.317,9.768,10.159,7.033,-8.205,11.722,23.053,14.066,-20.317
-25.006,-35.165,13.675,43.761,-26.569,-11.331,14.847,20.708,-32.821,35.556,-40.244,8.205,-28.523,17.973,-29.304,9.768,8.205,-3.907,-12.894,-7.424,57.827,22.662,-29.304
-49.231,-27.35,20.708,33.993,-50.403,-16.801,22.662,23.443,-35.946,42.198,-47.277,2.344,-39.463,35.946,-23.443,-11.722,13.675,-3.126,-19.927,-26.96,75.8,29.695,-23.443
-57.827,-10.159,21.49,13.284,-56.654,-6.642,31.258,-0.391,-31.648,51.184,-36.728,-25.788,-35.165,36.337,-17.973,-26.178,21.88,3.126,-20.708,-28.913,68.767,20.317,-17.973
-34.383,-6.252,9.768,10.94,-34.383,3.126,23.053,-11.331,-26.178,51.575,-29.695,-27.741,-28.913,16.801,-14.457,-6.252,12.503,3.907,-8.987,-14.457,30.085,10.549,-14.457
-30.085,-14.457,13.675,0.781,-33.211,11.331,17.192,-25.006,-25.397,57.436,-27.741,-25.788,-22.662,8.596,-13.284,5.47,8.205,1.954,-12.894,-1.172,13.675,11.722,-13.284
-12.503,-32.43,28.913,-2.735,-7.814,17.973,8.596,-37.509,-4.298,53.138,-27.741,-20.708,-4.298,-1.954,-13.675,21.099,7.033,-3.126,-28.132,21.49,5.861,11.331,-13.675
-16.801,-33.211,28.913,6.252,-6.642,11.331,6.642,-26.178,20.708,42.198,-34.383,-24.225,4.689,1.563,-17.192,15.238,1.172,-10.159,-28.132,19.927,5.47,19.145,-17.192
-39.072,-28.913,25.397,12.503,-22.271,1.563,6.252,-15.238,30.085,31.258,-44.542,-33.211,0.391,8.596,-17.973,-5.079,-0.781,-16.02,-24.615,8.205,25.006,22.271,-17.973
-63.297,-25.006,22.662,5.861,-46.105,1.172,8.987,-22.662,47.277,23.834,-44.151,-26.178,18.364,-4.689,-12.894,0.781,0,-14.847,-21.88,12.112,26.96,17.192,-12.894
-52.747,-22.662,14.457,10.159,-36.728,-2.735,10.159,-20.708,47.277,18.755,-42.979,-18.755,26.96,-20.317,-16.02,14.457,-3.126,-13.284,-13.675,17.582,26.178,10.159,-16.02
-22.662,-27.35,18.364,13.675,-12.894,-1.563,7.424,-10.94,37.9,19.927,-45.324,-28.523,9.377,-0.391,-22.271,-1.954,-7.033,-17.192,-17.582,11.331,31.648,20.708,-22.271
-17.582,-23.443,16.41,8.205,-7.033,0.781,7.424,-17.192,22.662,25.788,-41.416,-36.728,-3.907,11.331,-24.615,-12.112,-4.689,-19.536,-15.629,4.298,34.383,26.96,-24.615
0.391,-16.801,20.708,0,8.987,9.768,10.159,-25.006,9.768,31.648,-30.085,-33.602,-4.689,6.252,-29.695,6.252,-1.172,-15.238,-19.927,12.503,20.317,21.099,-29.695
8.205,-10.159,13.284,9.768,19.145,10.94,9.377,-17.192,10.159,33.602,-25.788,-21.099,-3.126,18.364,-38.291,21.099,-5.47,-12.503,-12.503,14.847,8.205,30.867,-38.291
-29.695,-0.391,-7.033,12.503,-13.675,-4.298,3.907,-9.377,16.41,29.304,-32.43,-9.377,-4.298,10.549,-18.755,16.801,-6.642,-15.629,7.814,-9.768,10.94,23.834,-18.755
-29.695,0.391,-8.205,14.066,-17.192,-11.722,7.033,0,30.476,24.225,-38.681,-3.516,3.126,3.516,-3.516,10.159,-3.907,-17.192,8.987,-22.271,25.788,11.722,-3.516
-41.807,-19.536,1.172,33.211,-30.867,-32.821,11.722,25.788,34.774,16.801,-58.217,11.331,2.344,7.814,-9.768,5.079,-7.033,-25.397,-0.391,-23.443,54.31,16.41,-9.768
-55.482,-30.085,19.145,33.211,-46.886,-35.165,15.238,33.602,34.774,13.675,-67.204,-2.735,-7.424,20.708,-10.549,-22.271,3.516,-32.039,-18.364,-34.774,80.879,22.271,-10.549
-51.966,-23.443,24.225,6.252,-47.277,-14.457,14.847,3.126,27.741,16.02,-57.827,-30.085,-7.033,13.284,-14.847,-33.602,8.987,-30.085,-23.443,-23.834,74.237,12.894,-14.847
-35.165,-23.443,21.49,-2.735,-27.741,0.391,3.516,-16.41,17.192,13.284,-49.621,-31.648,-5.079,-4.298,-26.96,-12.503,4.298,-27.741,-20.708,1.563,42.198,7.424,-26.96
-22.271,-26.569,17.973,-5.47,-5.861,2.344,-7.424,-23.834,25.397,12.894,-43.761,-42.979,-0.391,-6.252,-26.178,-13.284,3.516,-27.741,-17.192,10.94,18.364,8.596,-26.178
-30.867,-22.271,5.47,-19.145,-13.284,3.907,-14.066,-42.589,33.602,11.722,-39.072,-35.165,11.331,-20.708,-19.536,0.781,2.344,-31.648,-4.689,16.801,-0.391,-1.172,-19.536
-23.443,-26.96,7.033,-15.238,-3.516,0.781,-15.238,-39.853,33.993,12.503,-37.9,-12.894,16.02,-29.695,-8.205,18.755,2.735,-34.383,-6.252,21.88,-7.033,-4.298,-8.205
-37.509,-32.43,10.159,-11.722,-12.894,-7.814,-16.02,-33.211,24.615,14.457,-39.463,-29.695,0.391,-15.238,-7.814,-5.861,5.079,-41.807,-9.377,15.238,0,1.563,-7.814
-47.668,-26.178,1.563,-16.801,-19.536,-8.205,-18.364,-42.198,17.582,17.582,-35.556,-50.012,-9.377,-6.642,-2.344,-30.085,7.424,-44.933,-0.781,7.424,7.424,-2.344,-2.344
-35.556,-24.225,-5.861,-15.629,-6.642,-6.642,-19.145,-48.84,8.987,18.755,-33.211,-35.165,-6.642,-9.377,-10.94,-11.722,8.596,-42.979,6.642,14.847,7.033,0.391,-10.94
-23.834,-25.788,-10.549,-15.629,3.516,-9.768,-18.755,-51.184,9.768,14.847,-33.993,-28.132,-1.954,-4.298,-25.006,-3.907,5.861,-42.198,11.331,17.582,9.377,9.768,-25.006
-14.066,-18.364,-14.457,-12.894,3.126,0.781,-19.145,-45.714,15.238,14.066,-31.258,-43.37,-8.596,5.861,-20.708,-20.317,3.516,-39.072,15.238,2.735,11.331,16.41,-20.708
-14.066,-9.377,-14.847,-30.085,-4.298,8.987,-15.238,-58.217,11.722,16.801,-24.225,-52.747,-14.847,1.563,-8.205,-25.397,4.689,-30.476,15.629,-1.563,-1.563,15.238,-8.205
-10.549,-22.271,-1.954,-20.708,-2.735,11.331,-13.675,-51.575,0.391,18.755,-21.099,-44.151,-16.801,-16.801,-1.172,-10.549,1.172,-22.271,2.735,11.722,-2.735,1.954,-1.172
-22.662,-30.476,3.907,-2.344,-10.94,3.516,-12.503,-32.039,7.033,21.49,-22.271,-33.211,-9.377,-17.973,4.298,-2.735,1.172,-20.708,-3.126,9.377,-3.516,5.47,4.298
-36.337,-32.43,0.391,11.722,-19.145,-11.722,-12.112,-12.894,14.847,21.099,-30.867,-18.755,-13.284,-0.391,7.033,-6.642,2.735,-23.053,0.391,-8.205,11.722,14.457,7.033
-40.635,-41.026,-9.377,34.774,-21.099,-42.979,-9.377,15.629,16.801,18.755,-51.966,3.516,-24.225,23.053,4.689,-15.629,-1.172,-32.43,10.159,-35.165,43.37,30.867,4.689
-35.165,-37.118,-21.099,35.165,-18.364,-48.059,-9.377,16.801,30.476,21.88,-56.264,5.079,-7.424,23.834,1.954,-15.629,1.172,-29.695,21.88,-35.556,36.728,35.165,1.954
-33.211,-35.556,-10.159,18.755,-20.708,-41.026,-1.563,3.126,29.304,33.602,-44.933,-21.88,-12.894,37.9,5.079,-33.993,6.252,-28.913,10.94,-35.946,45.324,37.118,5.079
-13.284,-38.291,-14.457,0,-4.298,-23.053,-14.066,-24.615,31.258,30.867,-34.383,-25.006,-4.689,12.894,6.642,-11.722,1.954,-27.35,15.238,-0.391,2.344,26.178,6.642
-22.662,-38.291,-16.801,0.391,-10.549,-18.755,-17.192,-30.085,34.774,26.96,-26.178,-30.867,-1.563,1.954,5.47,-0.391,1.563,-24.615,17.582,16.801,-17.192,21.49,5.47
-47.277,-32.821,-11.722,-1.172,-31.648,-17.973,-17.192,-26.569,32.039,23.053,-23.443,-41.026,-12.112,11.331,-7.424,0.391,1.563,-26.178,12.503,16.801,-20.317,25.788,-7.424
-37.9,-30.085,-24.225,3.126,-19.927,-23.053,-21.099,-24.615,28.913,18.364,-28.132,-16.41,-12.112,-1.954,-4.689,23.053,-0.391,-30.476,25.006,15.629,-26.569,20.708,-4.689
-15.238,-28.913,-27.35,13.675,6.252,-30.476,-18.364,-15.629,30.867,14.847,-29.304,5.079,0,-14.847,-5.079,43.761,-2.735,-28.913,28.132,11.722,-22.271,14.847,-5.079
7.814,-33.993,-10.549,0.391,31.648,-25.006,-19.145,-23.053,19.536,12.112,-24.615,-16.02,-15.629,-8.596,-5.861,22.662,-3.516,-27.741,11.331,11.331,-16.02,13.284,-5.861
22.662,-33.602,-2.735,4.298,46.886,-20.317,-18.364,-16.02,3.907,10.94,-21.88,-20.708,-35.946,-1.563,-3.126,14.066,-6.642,-24.615,3.516,6.252,-12.112,9.377,-3.126
37.118,-37.118,0.391,5.47,66.422,-25.397,-14.457,-18.755,24.225,1.172,-20.708,-2.344,-10.94,-11.722,-8.596,34.774,-9.768,-20.708,0.391,14.847,-16.02,7.033,-8.596
13.284,-27.741,6.252,-0.391,52.747,-29.695,-8.596,-21.099,39.463,-0.781,-18.364,-6.252,-1.172,-3.907,-19.145,39.463,-11.722,-16.801,-5.47,16.41,-18.364,10.549,-19.145
-17.192,-16.02,0.781,-6.252,22.662,-25.788,-8.205,-26.96,44.151,-1.954,-15.629,-22.662,-9.768,5.861,-20.317,28.523,-14.066,-19.145,0,8.205,-25.788,14.847,-20.317
-9.377,-14.847,-9.768,-3.516,24.225,-26.178,-8.205,-28.132,53.919,-2.735,-15.238,-17.582,-2.735,-1.172,-9.768,33.602,-17.973,-16.801,10.549,3.516,-37.118,12.112,-9.768
-14.457,-17.582,-11.331,3.516,17.192,-27.741,-6.642,-23.053,33.602,7.424,-14.847,-8.596,-10.159,-3.907,-6.642,39.463,-15.629,-9.377,12.112,7.424,-35.946,7.814,-6.642
-27.35,-24.615,-8.987,7.424,-5.079,-29.304,-1.954,-17.582,1.563,17.973,-16.02,-4.689,-34.383,7.814,-5.861,32.43,-8.596,-7.033,9.768,-0.391,-19.536,10.549,-5.861
-26.96,-35.946,-6.252,28.132,-14.066,-47.277,2.735,16.41,-30.085,20.708,-28.523,23.834,-61.343,21.88,0.391,25.397,-5.47,-8.596,7.033,-27.741,11.722,19.536,0.391
-11.722,-32.821,-5.861,21.099,0.781,-48.84,8.205,9.377,-14.457,22.662,-33.211,25.788,-48.059,32.43,-1.172,18.364,-1.172,-3.516,6.642,-27.35,20.708,22.271,-1.172
-37.9,-19.927,-0.781,-5.47,-27.741,-32.43,19.536,-24.615,22.662,17.192,-15.629,-17.973,-25.006,44.933,-5.079,-6.642,3.126,0.391,1.563,-20.708,19.536,23.053,-5.079
-10.549,-16.801,-12.112,-5.47,-7.424,-13.284,8.987,-34.774,58.608,0.391,-5.079,-16.02,-0.391,27.35,1.954,10.159,-3.907,-0.391,12.894,-3.126,-18.364,19.927,1.954
-5.861,-14.847,-23.443,-13.284,-0.781,-5.861,3.126,-54.701,92.21,-9.768,0.391,-14.457,26.96,9.768,8.205,22.662,-8.205,0,24.225,12.112,-38.291,10.549,8.205
-0.391,-10.159,-25.006,-8.596,12.112,-8.205,4.298,-53.919,85.958,-9.768,5.47,-24.615,26.569,5.47,5.861,18.364,-7.814,-0.781,25.788,16.801,-40.244,7.424,5.861
-1.954,-12.503,-19.145,5.47,10.549,-11.722,3.907,-31.258,54.701,-7.033,3.126,-21.099,-0.391,5.861,8.205,15.629,-5.079,-3.516,19.927,10.549,-41.026,9.768,8.205
-8.596,-20.317,-9.768,-1.172,0.391,-13.675,5.861,-33.211,25.788,-4.298,-2.344,-1.563,-14.457,-4.298,5.47,31.258,-3.907,-2.735,10.549,14.457,-34.774,7.033,5.47
-4.298,-18.364,1.563,1.954,-0.391,-4.689,13.675,-26.96,19.927,1.172,-1.563,3.907,-8.205,-13.284,2.344,43.761,-2.344,4.689,-0.781,19.145,-33.993,2.344,2.344
-27.741,-12.112,7.033,0.391,-34.383,3.516,16.02,-18.755,12.894,0,-0.781,-11.331,-21.88,-9.377,5.861,26.569,-7.814,6.642,-6.252,4.689,-36.337,4.298,5.861
-15.238,-13.675,1.954,4.298,-23.834,-0.391,13.675,-11.722,23.053,-3.907,-4.689,-9.768,-15.238,-13.284,14.457,18.364,-12.894,7.424,-1.172,-2.735,-35.165,0,14.457
3.907,-12.112,-6.642,5.861,-3.907,-4.298,17.192,-17.582,34.383,-1.563,-1.954,0.391,10.159,-26.178,21.099,25.397,-14.457,16.02,7.424,4.298,-37.509,-10.159,21.099
7.033,-5.47,-4.298,3.126,1.954,-8.596,22.662,-16.02,39.463,-2.344,7.033,-0.391,22.662,-28.132,17.973,31.648,-13.675,20.708,5.079,3.907,-46.886,-8.596,17.973
5.079,-20.708,-4.689,3.516,0.391,-7.424,6.252,-15.238,30.085,-8.596,6.252,7.424,6.642,-20.317,15.629,33.993,-17.582,15.629,5.47,10.94,-53.529,-1.954,15.629
7.033,-25.397,-11.331,3.516,-3.516,-10.549,4.298,-16.02,25.788,-12.112,2.344,14.457,-5.47,-9.768,12.112,33.993,-19.927,16.02,12.112,6.642,-46.496,3.907,12.112
15.238,-25.788,-9.768,10.549,4.689,-16.801,10.94,-8.596,22.662,-2.735,0,15.238,-0.781,0.781,3.126,32.43,-19.145,17.192,10.549,-0.391,-26.178,7.814,3.126
5.079,-40.635,-15.629,31.648,-4.689,-35.165,9.768,9.768,8.596,1.172,-14.847,44.542,-11.331,14.847,6.252,30.867,-19.927,8.205,16.41,-13.284,5.47,19.536,6.252
-9.377,-35.946,-3.516,19.536,-17.192,-43.761,23.443,7.814,4.298,7.424,-16.41,38.291,-16.801,29.695,7.033,13.284,-14.066,9.768,4.298,-31.648,35.556,23.834,7.033
-23.053,-19.145,16.41,14.847,-28.523,-30.867,37.118,10.94,0.391,14.847,-4.298,25.397,-9.768,24.225,17.192,5.079,-4.689,20.317,-15.629,-30.867,33.211,21.49,17.192
-0.781,-16.02,18.755,19.145,-5.47,-19.536,27.35,18.364,15.238,0,4.689,30.476,2.344,0.391,20.708,27.741,-11.331,19.927,-17.973,-9.768,-5.079,15.238,20.708
0.781,-8.987,11.722,10.159,-2.344,-12.112,17.973,10.94,34.774,-17.192,5.47,34.383,9.768,-12.894,19.536,41.026,-17.192,13.675,-10.94,-1.172,-20.708,7.033,19.536
33.993,-4.298,5.861,10.159,26.96,-4.689,13.284,10.159,40.635,-23.443,3.126,43.761,17.973,-31.258,17.192,60.171,-22.662,9.768,-5.079,7.424,-33.602,-1.172,17.192
48.059,-2.344,-4.298,28.132,55.873,-17.192,4.689,26.178,53.919,-26.96,-2.735,38.291,24.615,-28.913,14.066,52.747,-30.085,1.172,5.079,6.642,-33.993,-1.563,14.066
28.913,1.172,-11.331,8.596,42.198,-23.834,-1.563,11.331,40.635,-30.085,-11.722,22.662,4.298,-17.582,2.735,32.039,-32.821,-7.424,12.112,0,-19.536,-1.563,2.735
12.112,0.781,21.49,4.689,24.225,-16.801,6.252,26.569,29.695,-22.662,-8.205,35.556,6.252,-22.662,0.391,50.012,-28.132,-3.126,-20.708,-5.079,-14.457,0.391,0.391
-1.172,-5.47,26.178,8.205,9.768,-16.801,3.907,30.476,19.145,-17.973,-3.907,42.198,11.331,-29.304,0.781,57.436,-28.913,-1.954,-25.397,2.344,-16.41,-1.563,0.781
-23.834,-6.252,20.317,1.954,-16.02,-21.099,0.391,29.304,3.126,-20.317,-7.033,28.913,-10.549,-23.443,4.298,34.774,-32.039,-7.424,-19.536,-8.987,-8.987,-4.689,4.298
-12.894,0.391,15.629,-1.563,3.516,-31.648,1.954,27.741,0.391,-21.099,-8.596,16.02,-17.973,-17.582,1.954,19.536,-29.695,-7.814,-14.847,-24.615,-3.126,-1.563,1.954
18.364,2.344,7.033,-6.252,41.026,-35.165,1.954,14.847,15.629,-23.053,-2.344,9.377,4.298,-22.271,-3.126,21.099,-29.695,-5.079,-6.252,-8.987,-14.066,-3.907,-3.126
41.026,0.391,12.112,-2.735,69.548,-38.681,0.391,20.708,43.761,-32.039,-3.516,12.894,29.695,-24.225,-13.284,28.913,-35.556,-9.377,-11.331,1.172,-16.41,-5.47,-13.284
57.045,4.689,4.298,-1.172,84.005,-43.761,-3.907,30.476,50.012,-40.635,-15.629,18.755,30.476,-12.503,-26.178,21.099,-35.946,-16.41,-3.516,-11.722,-4.689,3.516,-26.178
39.853,-5.861,14.847,-7.814,56.264,-40.635,-3.126,29.695,43.37,-40.244,-21.49,23.053,29.304,-1.172,-31.258,8.596,-35.556,-17.973,-14.066,-10.159,9.768,11.722,-31.258
13.284,-14.066,29.304,12.503,21.49,-52.357,7.424,65.25,23.053,-32.821,-31.258,45.714,17.973,4.298,-24.615,8.205,-37.509,-14.066,-28.523,-20.708,36.728,9.768,-24.615
-8.205,-7.814,20.317,14.066,-3.907,-58.608,11.722,69.548,-3.907,-25.006,-37.118,38.681,-14.457,15.238,-12.112,-17.192,-28.913,-10.549,-19.536,-39.463,51.184,6.252,-12.112
-26.178,1.954,24.225,-20.317,-31.648,-40.635,20.708,31.648,-17.582,-21.88,-14.066,8.987,-25.788,19.145,-3.516,-35.165,-21.88,-1.172,-23.443,-31.258,36.337,5.47,-3.516
-12.503,0.391,28.523,-7.424,-23.053,-20.708,14.066,37.9,-4.689,-26.178,1.954,14.847,-14.066,6.642,7.033,-14.457,-27.35,3.907,-27.741,-11.722,4.689,-1.954,7.033
-14.457,0.391,9.768,-11.722,-23.834,-13.675,3.516,18.364,2.344,-34.774,8.596,0.391,-10.94,3.126,3.126,-18.364,-31.648,0.781,-8.987,0,-10.159,-7.814,3.126
-6.642,-3.126,7.814,-19.927,-18.364,-8.987,1.563,3.907,12.503,-42.979,14.066,7.424,2.735,-3.516,0,-7.033,-35.556,0,-7.033,7.424,-14.457,-9.768,0
1.954,-10.549,25.006,-16.801,-1.563,-10.159,-0.781,12.503,21.88,-42.979,10.94,31.258,21.099,-8.987,-9.377,19.927,-36.728,0.391,-24.225,13.675,-11.331,-10.94,-9.377
-2.735,-7.424,21.88,-12.503,-6.252,-14.066,0.781,19.145,9.377,-37.9,6.642,13.675,5.47,-4.298,-9.377,0.781,-33.993,-0.391,-21.099,10.159,-9.768,-14.066,-9.377
20.708,-6.642,16.801,-19.536,19.536,-25.006,4.689,12.503,-5.861,-33.211,8.596,-2.735,-12.503,2.735,-11.331,-11.331,-28.132,0.391,-16.02,3.516,-12.894,-12.112,-11.331
43.37,-7.424,28.913,-10.159,49.231,-20.317,5.47,19.536,-15.629,-23.443,11.722,17.582,-12.112,-0.781,-11.722,16.02,-21.49,1.563,-28.132,14.457,-19.145,-11.331,-11.722
33.602,-8.596,10.549,-3.907,36.337,-19.145,3.126,11.331,-4.298,-18.364,10.549,23.053,2.735,-1.172,-14.457,23.443,-21.49,0.391,-9.768,19.145,-24.615,-9.377,-14.457
13.284,1.172,2.735,-16.02,19.927,-20.708,1.563,0.391,-12.503,-15.629,14.457,2.344,-12.112,11.722,-10.94,1.172,-20.708,0.391,-1.954,1.954,-26.178,-0.781,-10.94
1.954,14.066,15.629,-32.821,8.205,-5.861,1.563,-4.689,0.391,-17.973,17.582,-3.907,-9.768,11.722,-3.126,-2.344,-18.364,5.47,-14.847,-6.252,-38.291,0.781,-3.126
-15.629,17.192,-0.781,-28.132,-23.053,4.689,-1.563,-6.642,11.722,-21.88,15.629,-2.735,2.344,4.298,-7.814,3.907,-21.099,5.079,1.563,0,-53.138,-1.954,-7.814
-13.675,16.801,4.298,-29.304,-25.397,0.391,3.126,0,-5.079,-19.927,10.94,0.391,-10.549,3.907,-12.503,5.47,-19.927,1.954,-3.516,-10.94,-50.012,2.735,-12.503
7.033,16.801,11.331,-18.364,-3.126,0.781,5.47,13.675,-7.033,-19.927,0.391,8.987,-21.49,12.894,-4.298,-3.907,-14.457,0,-10.549,-25.788,-33.602,7.814,-4.298
11.722,9.377,0.391,4.298,3.516,-19.536,8.205,34.774,2.735,-19.927,-22.662,30.085,-18.755,35.556,-12.894,-13.675,-16.801,-7.814,0.391,-54.701,10.549,17.582,-12.894
12.503,5.079,4.689,-6.642,4.689,-26.96,17.582,20.708,4.298,-16.801,-20.317,16.41,-11.331,42.979,-15.238,-31.648,-13.284,0,-3.907,-54.701,23.443,21.88,-15.238
-10.94,12.894,23.834,-19.927,-16.801,-10.549,22.271,12.112,-2.735,-10.549,-7.814,-0.781,-16.41,46.496,-11.331,-41.807,-8.596,12.112,-23.053,-50.012,18.755,20.708,-11.331
20.317,6.252,6.252,-23.443,11.722,-3.907,2.735,-0.391,-0.391,-18.364,-1.563,7.814,-3.126,25.006,-17.192,-16.801,-21.49,12.112,-5.47,-21.49,-19.536,11.331,-17.192
32.821,3.126,2.344,-31.648,28.913,-4.689,-3.907,-10.94,-10.549,-14.457,2.344,-2.735,-4.298,17.192,-21.49,-16.801,-26.569,10.159,-1.563,-2.344,-37.9,6.252,-21.49
23.443,4.298,-1.954,-33.993,23.834,-8.205,-12.112,-10.94,-31.648,-13.284,-0.391,-14.457,-25.397,15.629,-25.397,-24.615,-27.741,2.344,2.735,1.172,-46.105,3.126,-25.397
11.331,-1.954,-21.88,-35.165,12.503,-17.582,-25.397,-16.02,-30.476,-19.145,-8.987,1.563,-23.053,7.033,-25.397,-15.629,-33.211,-11.331,22.662,5.861,-50.012,0,-25.397
-3.907,-2.735,-26.569,-44.933,-10.159,-18.364,-23.834,-24.615,-12.894,-22.271,-13.675,12.503,-5.079,0.391,-19.927,-11.331,-33.602,-18.755,27.35,5.861,-43.37,-4.689,-19.927
-34.774,6.642,-7.814,-49.621,-45.324,-10.159,-19.927,-9.377,-8.987,-27.741,-8.596,-4.298,-14.457,7.033,-10.549,-32.43,-34.383,-19.536,8.596,-6.252,-38.681,-4.298,-10.549
-52.747,15.238,-3.126,-34.774,-60.952,-3.516,-24.615,14.066,-3.516,-38.291,-7.814,0.391,-21.099,6.642,-1.172,-34.383,-36.337,-18.755,3.907,-13.284,-35.946,-8.205,-1.172
-7.033,17.973,-5.47,-39.463,-5.47,-14.066,-26.178,12.112,6.642,-42.979,-10.159,19.145,-1.172,-5.47,-4.689,-14.457,-39.072,-17.973,6.252,-9.768,-35.946,-12.503,-4.689
23.443,17.973,0,-44.151,35.556,-22.271,-23.834,8.987,-4.298,-41.026,-7.814,18.364,-1.172,-12.503,-9.768,-10.94,-40.635,-14.847,0.781,-3.126,-30.085,-17.582,-9.768
13.284,23.053,-15.629,-52.747,33.602,-26.178,-32.821,-5.47,-17.973,-49.231,-6.252,-0.781,-23.834,-8.205,-13.675,-27.741,-48.84,-19.145,16.41,-7.033,-36.337,-10.159,-13.675
17.582,18.755,-33.993,-61.734,26.96,-25.397,-38.291,-20.708,-20.317,-53.529,-12.503,-3.907,-23.443,-10.159,-27.741,-29.304,-56.264,-25.006,34.774,-7.424,-40.635,-4.689,-27.741
0.781,17.192,-40.635,-52.747,-0.781,-20.708,-37.9,-15.238,-20.317,-52.747,-15.238,3.126,-19.145,-11.331,-23.834,-30.476,-56.654,-26.569,41.416,-15.629,-31.648,-2.735,-23.834
-32.821,10.94,-28.913,-30.867,-33.211,-21.099,-34.383,6.642,-10.94,-54.31,-19.145,5.079,-23.443,0.391,-22.271,-34.383,-49.621,-28.523,29.695,-25.788,-14.457,5.079,-22.271
-43.761,8.205,-33.993,-15.629,-41.807,-38.291,-36.728,31.258,-17.582,-55.873,-36.728,31.648,-36.337,14.457,-17.582,-39.072,-44.933,-36.728,34.774,-60.562,18.364,15.238,-17.582
0,-2.344,-22.662,-20.317,7.033,-47.668,-30.476,25.397,-20.317,-46.886,-37.509,32.039,-33.602,19.536,-16.02,-41.807,-37.118,-33.602,23.443,-55.482,32.43,10.94,-16.02
19.145,-3.126,-3.126,-44.933,37.509,-46.105,-17.582,-4.689,-14.847,-41.807,-14.847,0.391,-26.569,17.582,-7.814,-53.919,-35.946,-21.49,3.907,-36.337,25.006,3.907,-7.814
29.695,-3.516,-3.907,-35.556,40.244,-29.304,-23.834,0.391,-4.298,-49.231,-1.954,12.894,-13.284,-5.861,-5.079,-16.801,-48.449,-12.894,4.689,-14.066,-16.801,-3.907,-5.079
15.629,-9.377,-3.126,-37.9,14.847,-16.801,-23.053,-8.596,3.126,-50.794,5.079,18.755,1.172,-17.192,-6.642,0,-55.092,-4.298,3.907,2.344,-27.741,-6.642,-6.642
0.391,-6.642,-2.344,-37.9,-6.252,-8.205,-21.099,-10.94,17.192,-53.138,8.987,4.298,8.987,-16.02,-6.252,-7.814,-58.608,1.172,3.126,5.47,-31.258,-3.907,-6.252
-14.066,0.781,-5.47,-23.053,-19.145,-6.252,-20.708,5.079,20.708,-53.919,5.47,1.172,3.126,-11.722,0,-16.801,-59.389,2.735,6.252,-1.954,-25.788,-3.516,0
12.503,2.344,2.735,-25.006,10.549,-10.549,-14.066,7.814,2.735,-48.059,0.391,19.536,-5.079,-8.987,-4.298,-5.47,-55.873,4.298,-1.954,-2.735,-14.457,1.172,-4.298
38.681,5.47,11.331,-23.834,39.853,-7.814,-5.47,5.47,-8.205,-37.118,6.252,24.225,1.172,-12.894,-2.735,0.391,-48.449,8.987,-10.549,5.079,-10.94,-2.344,-2.735
38.291,9.377,6.642,-20.317,40.244,-3.516,-5.079,4.298,-24.225,-27.741,10.94,12.112,-12.112,-7.033,3.516,-12.112,-44.542,9.768,-5.861,1.563,-14.457,-5.47,3.516
12.112,14.066,3.516,-20.317,12.894,0.781,-6.642,1.563,-41.026,-16.02,11.331,14.457,-25.788,5.47,9.377,-19.927,-37.509,12.894,-2.735,-8.596,-9.768,0,9.377
-1.954,10.159,3.126,-20.317,-10.94,10.94,0.781,-9.768,-41.026,-0.781,18.364,20.317,-7.424,6.642,6.252,-7.033,-25.006,23.053,-2.344,1.954,-7.814,-1.563,6.252
-7.424,14.847,5.47,-35.165,-20.708,23.443,2.344,-27.741,-31.258,1.563,28.523,8.987,2.735,0.391,7.033,-0.781,-17.582,29.304,-4.689,10.549,-19.536,-10.549,7.033
-1.954,19.145,20.317,-23.053,-14.847,30.867,0,-1.954,-34.383,-2.735,30.867,16.801,-12.503,-1.172,22.662,1.954,-16.02,28.132,-19.536,-2.344,-25.397,-5.861,22.662
6.252,15.238,16.801,-12.503,-9.377,26.96,-0.781,10.159,-30.476,-9.377,23.834,26.569,-15.629,-4.298,20.317,9.768,-17.192,24.615,-16.02,-7.033,-24.615,-3.907,20.317
-0.781,9.768,22.271,-10.159,-19.927,19.927,0.391,20.317,-13.284,-17.192,15.238,14.847,-6.642,-8.987,10.94,3.516,-16.41,17.973,-21.49,-18.755,-12.894,-5.861,10.94
-25.788,-3.126,16.02,20.317,-39.463,-2.735,-2.735,53.138,-13.284,-19.536,-5.47,39.853,-13.284,-0.781,15.629,-0.781,-19.145,6.252,-15.238,-36.337,17.192,2.344,15.629
-46.496,-4.298,18.755,2.344,-55.873,-13.675,3.907,36.337,-12.503,-11.331,-13.284,28.132,-19.145,19.927,12.112,-22.662,-14.457,1.954,-17.973,-50.794,40.244,10.159,12.112
-36.337,4.298,27.741,-23.834,-42.589,-3.516,12.503,5.47,-16.02,-3.907,-0.391,-7.814,-19.145,27.741,4.689,-42.979,-5.47,7.033,-26.96,-41.807,38.291,7.424,4.689
-15.238,9.768,21.099,-17.192,-21.099,15.629,3.126,0.781,-17.582,-6.252,14.847,-4.689,-18.755,14.457,17.192,-27.35,-7.814,10.159,-20.317,-25.788,3.126,4.298,17.192
-4.689,18.755,17.973,-33.602,-5.47,28.523,-2.344,-20.317,-7.814,-4.689,22.662,-0.391,-10.159,5.079,31.648,-17.192,-6.252,9.768,-17.192,-20.708,-18.755,4.689,31.648
27.741,21.099,20.708,-36.728,25.788,37.118,-3.126,-25.397,0.391,-9.768,25.006,5.861,-0.781,-13.284,37.9,-2.735,-5.47,12.503,-19.927,-15.238,-30.867,-1.172,37.9
22.662,33.602,15.629,-23.443,17.582,39.463,-1.954,-6.252,-3.516,-12.503,16.801,-1.172,-12.112,-13.284,33.211,-8.596,-5.47,10.549,-14.847,-26.178,-33.993,0.391,33.211
20.317,41.416,18.364,-35.165,22.271,35.946,-1.954,-10.549,-18.364,-8.596,5.47,-23.053,-35.946,-1.954,30.085,-37.118,-3.516,6.642,-17.582,-40.635,-22.271,5.079,30.085
13.284,44.933,16.801,-53.529,11.331,33.211,3.516,-26.178,-28.132,-7.033,0.781,-26.178,-37.9,2.344,9.768,-35.556,-0.781,6.252,-16.02,-35.556,-21.88,8.205,9.768
14.457,47.277,8.987,-49.231,11.722,34.774,3.126,-28.523,-21.099,-1.954,0,-23.053,-17.192,1.954,-0.781,-30.085,0.781,5.47,-8.205,-26.569,-22.271,7.814,-0.781
0.391,44.542,2.735,-58.608,-2.344,32.821,-3.907,-35.165,-6.642,1.172,-1.954,-37.509,-10.159,13.675,4.689,-54.701,1.563,0.781,-1.954,-33.211,-17.192,8.987,4.689
-5.47,48.84,16.41,-64.078,-7.424,32.43,-0.781,-26.569,-3.907,7.814,3.516,-41.416,-10.94,23.053,26.96,-73.455,8.596,5.861,-15.629,-43.37,-16.02,12.503,26.96
21.099,48.84,11.722,-62.125,12.894,42.198,-1.563,-32.821,5.079,14.066,12.503,-41.026,12.112,13.675,35.165,-70.72,14.847,12.894,-10.94,-24.225,-25.006,6.252,35.165
12.894,52.747,16.801,-78.144,-4.689,53.919,-6.642,-36.337,5.47,16.02,14.457,-38.681,18.364,13.675,30.085,-64.86,16.801,11.722,-16.02,-21.88,-32.821,7.424,30.085
24.225,53.529,10.94,-83.614,1.563,48.84,-14.457,-28.913,-8.987,12.503,2.344,-35.165,-5.47,29.695,22.271,-75.8,17.973,1.172,-10.159,-36.337,-30.085,23.443,22.271
14.066,45.714,8.596,-85.958,-6.252,35.556,-17.973,-26.569,-16.801,17.192,-5.47,-29.695,-5.47,39.853,22.662,-92.601,16.801,-12.112,-7.814,-44.542,-7.814,34.383,22.662
23.053,27.741,0.391,-70.33,7.424,5.47,-23.053,-6.252,-18.755,14.066,-30.867,-13.284,-4.298,46.496,-8.596,-81.661,8.596,-26.569,0.391,-50.012,20.317,34.383,-8.596
28.913,22.662,7.033,-63.297,25.788,-14.847,-20.317,7.424,-22.662,11.331,-40.635,-26.569,-22.662,65.25,-11.331,-110.183,5.47,-34.383,-6.252,-64.469,46.105,43.37,-11.331
27.741,27.741,25.397,-80.879,33.602,-7.033,-12.112,-11.722,-10.159,11.722,-26.569,-47.277,-10.549,63.297,-0.391,-125.031,5.47,-29.695,-24.615,-55.092,47.277,38.291,-0.391
27.741,22.662,11.722,-72.674,35.946,-0.391,-20.708,-23.443,-2.344,0.391,-19.145,-43.37,-0.781,39.072,-3.907,-100.806,-6.252,-22.271,-10.94,-23.053,17.582,22.662,-3.907
9.377,18.364,5.861,-71.502,11.331,6.642,-22.662,-32.039,2.735,-11.331,-12.503,-51.184,-1.563,27.35,1.954,-101.978,-13.284,-19.927,-5.079,-6.252,-2.735,15.238,1.954
-32.43,12.112,19.927,-64.078,-29.304,13.284,-19.145,-26.96,10.159,-12.503,-5.079,-26.178,9.377,16.41,15.629,-76.972,-14.847,-16.801,-19.145,0.391,-2.344,10.94,15.629
-30.476,0.391,13.675,-43.37,-30.085,9.768,-24.225,-14.066,4.298,-17.973,-7.814,-0.781,11.331,4.689,7.814,-47.668,-17.973,-19.927,-12.894,8.987,-1.172,8.596,7.814
-21.49,-9.377,9.768,-38.291,-25.006,5.861,-26.96,-12.112,-12.503,-27.741,-13.675,-24.225,-16.02,12.112,-7.033,-67.985,-20.317,-28.523,-8.987,6.252,10.549,10.94,-7.033
-23.443,-0.391,23.834,-42.198,-20.317,12.894,-24.615,-8.596,-33.211,-26.178,-12.503,-41.416,-40.635,19.927,-8.987,-84.396,-16.02,-28.913,-23.053,-7.814,30.476,11.331,-8.987
-27.741,-4.298,21.49,-38.291,-28.132,13.284,-24.615,-8.987,-36.728,-29.304,-14.066,-23.443,-28.913,0,-10.549,-64.86,-16.801,-25.397,-20.708,3.516,24.225,4.298,-10.549
-23.834,-7.814,7.033,-33.993,-27.35,7.424,-24.615,-12.894,-46.105,-35.556,-18.364,-13.284,-28.523,-13.675,-19.536,-53.138,-23.053,-23.443,-6.252,12.503,20.708,-6.252,-19.536
-28.523,0.391,-0.391,-33.993,-22.271,-0.781,-22.662,-16.41,-33.602,-38.291,-13.284,-21.88,-22.271,-4.298,-7.814,-73.065,-29.304,-19.536,1.172,2.344,21.49,-5.079,-7.814
-39.463,3.516,-1.172,-33.211,-31.258,-2.344,-22.271,-12.894,-5.47,-40.635,-8.205,-16.801,-3.126,2.344,-1.172,-71.502,-35.946,-11.331,1.954,-0.781,3.126,1.172,-1.172
-17.582,1.563,-0.391,-23.053,-12.112,-7.033,-17.582,-1.172,-1.563,-46.886,-5.079,-1.954,-7.814,2.344,-2.344,-49.621,-45.714,-4.689,1.172,7.814,-21.49,0,-2.344
15.238,1.172,16.41,-2.735,25.397,-10.549,-8.205,24.615,-9.377,-41.807,-5.47,8.987,-19.145,8.987,3.126,-40.635,-46.886,0.391,-15.629,-5.079,-10.94,3.516,3.126
1.563,1.172,32.039,3.126,11.331,-14.457,-1.172,44.151,-32.039,-34.774,-16.02,16.02,-42.589,12.503,4.298,-42.589,-44.542,3.126,-31.258,-24.225,7.814,3.516,4.298
-12.112,-7.033,25.397,20.708,-7.033,-32.821,1.954,66.422,-60.562,-30.867,-38.681,32.821,-65.641,21.88,-5.079,-48.84,-41.807,0.781,-24.615,-44.151,41.416,10.549,-5.079
-14.457,-4.298,16.41,5.47,-5.079,-40.635,8.205,41.807,-62.125,-28.132,-37.118,4.689,-59.389,24.225,-13.284,-75.018,-28.523,-0.781,-15.629,-46.496,71.893,6.642,-13.284
-27.35,6.252,10.549,-18.755,-14.847,-23.834,3.126,7.033,-28.913,-32.821,-27.35,-21.49,-32.039,17.973,-8.596,-89.084,-19.536,0.391,-9.768,-35.165,64.469,0.781,-8.596
-25.788,2.735,7.033,-22.271,-19.927,-5.861,-12.503,1.172,-13.675,-44.151,-22.271,-10.94,-12.112,-6.252,-11.722,-61.734,-26.178,-2.344,-6.252,-5.861,21.49,-2.344,-11.722
0.391,6.252,16.02,-23.834,5.079,7.814,-14.457,0.391,-3.907,-45.714,-13.675,-17.192,-9.377,-9.377,-9.768,-53.138,-25.397,-1.954,-15.238,6.252,12.503,-15.629,-9.768
0,7.424,23.834,-11.722,-0.391,21.88,-17.192,15.238,-5.861,-46.105,-12.503,-19.927,-24.225,-13.675,3.126,-51.184,-27.741,-1.954,-23.053,4.689,0.391,-19.927,3.126
-6.642,0,16.02,-6.642,-8.987,19.536,-23.834,15.629,-19.536,-44.542,-17.973,-1.172,-25.006,-16.02,-8.987,-33.211,-28.132,-7.424,-15.238,8.987,-11.331,-4.689,-8.987
1.563,-0.391,17.192,-4.689,7.033,12.503,-20.708,14.457,-12.894,-41.807,-14.457,10.549,-12.503,-21.49,0.781,-27.35,-21.88,-9.377,-16.41,2.344,-5.079,4.298,0.781
-18.364,0.781,14.457,2.735,-4.689,12.503,-25.397,18.755,-11.331,-39.072,-8.596,-7.424,-23.834,-9.377,13.284,-48.059,-17.973,-10.549,-13.675,-3.516,0.781,5.47,13.284
-14.847,1.954,12.503,-1.172,5.079,9.377,-32.821,17.192,-6.642,-41.026,-8.987,-17.582,-23.053,-5.079,8.205,-56.654,-19.927,-14.847,-11.722,-5.079,-3.907,10.94,8.205
-28.132,-2.344,25.006,7.033,-5.47,7.033,-33.211,33.602,-3.516,-41.026,-8.987,1.954,-16.41,-14.847,12.112,-33.211,-20.317,-12.112,-24.225,-3.516,3.126,0,12.112
-25.788,-4.689,22.662,3.907,-6.642,13.675,-32.039,21.099,1.172,-37.118,-4.298,-3.907,-13.284,-10.549,7.033,-27.741,-16.41,-7.424,-21.88,1.172,11.331,-8.987,7.033
-26.178,0.781,13.284,-12.894,-5.47,25.006,-35.946,-7.424,-2.344,-37.509,1.172,-26.96,-19.145,-7.033,0.391,-40.635,-16.41,-6.642,-12.503,-7.033,12.112,-2.344,0.391
-12.112,3.126,14.457,-5.861,16.801,28.913,-38.291,-7.033,1.172,-33.602,4.689,-19.145,-11.331,-8.596,7.814,-35.556,-10.94,2.344,-13.675,-11.331,8.205,4.689,7.814
7.033,5.079,0.391,8.987,42.198,22.662,-33.993,-7.033,-7.033,-21.49,5.47,-15.629,-11.722,1.172,2.735,-32.43,-3.516,12.503,0.391,-9.377,9.377,13.675,2.735
8.205,14.066,5.861,10.549,43.37,21.49,-22.271,-1.954,-28.913,-5.47,3.516,-14.847,-25.006,9.768,7.033,-39.463,1.954,19.145,-5.079,-24.615,22.271,23.834,7.033
-11.331,21.099,12.894,20.708,16.801,12.894,-14.847,29.695,-52.357,1.563,-15.238,7.814,-52.747,31.648,13.675,-51.575,5.079,20.708,-12.112,-53.138,47.668,34.383,13.675
-5.861,36.337,13.284,23.834,16.41,11.331,0.781,39.853,-37.118,6.642,-14.847,12.503,-47.668,50.794,17.973,-55.873,8.596,28.913,-12.503,-67.204,63.297,37.509,17.973
-23.834,46.105,24.225,-7.424,-9.768,31.258,13.675,3.516,-20.708,8.205,1.172,-30.867,-31.648,51.184,16.41,-79.707,13.675,33.993,-23.443,-60.562,66.813,32.039,16.41
-38.681,41.026,26.178,-7.424,-28.913,53.529,0.391,-2.735,7.033,-3.907,12.894,-23.443,-8.987,33.993,17.582,-51.575,6.642,34.774,-25.397,-31.258,33.211,18.755,17.582
-58.608,39.463,24.615,0,-50.403,65.25,-4.298,-3.516,34.383,-3.907,21.88,-14.847,17.582,31.258,17.192,-29.304,7.424,35.556,-23.834,-14.847,9.768,21.099,17.192
-28.913,33.993,16.801,-3.126,-23.443,65.25,-8.987,-12.112,33.602,1.563,27.741,-27.741,23.443,28.132,24.615,-41.416,7.033,30.476,-16.02,-10.549,-0.391,23.834,24.615
-3.516,32.039,16.41,-2.735,5.861,53.919,-14.457,-1.954,19.927,5.861,23.053,-27.35,10.94,29.304,35.946,-54.31,5.079,24.225,-15.629,-12.112,-5.861,21.49,35.946
42.589,35.556,11.331,0.391,61.343,37.509,-14.066,7.424,21.099,11.722,19.145,-1.172,20.317,28.523,48.449,-46.105,3.516,23.053,-10.549,-18.755,5.47,21.099,48.449
70.33,37.9,12.112,-10.549,94.945,23.834,-10.549,3.126,21.099,10.159,18.364,1.563,37.9,17.192,40.244,-44.542,0.391,22.662,-11.331,-14.847,5.47,24.615,40.244
50.794,38.681,6.642,-23.053,69.548,16.801,-13.284,1.172,1.563,1.172,12.894,-17.973,12.894,30.476,18.755,-64.86,-7.033,18.364,-5.861,-16.801,11.331,21.88,18.755
14.066,39.072,7.424,-10.159,23.834,18.755,-16.02,23.834,-22.662,-5.47,5.47,-10.94,-2.735,30.867,2.344,-66.422,-9.768,16.801,-6.642,-24.225,28.913,17.582,2.344
-11.722,30.476,13.675,-22.271,-20.317,25.397,-12.894,18.364,-32.039,-12.112,7.033,-1.563,0.391,18.364,0,-57.436,-12.503,17.582,-12.894,-12.894,21.88,11.722,0
-28.913,26.96,9.768,-25.788,-49.231,29.695,-15.238,16.801,-21.49,-21.099,9.768,1.563,20.708,1.172,0.391,-53.919,-18.755,15.629,-8.987,-3.516,12.112,0.781,0.391
-33.602,24.615,11.722,-18.364,-51.966,28.913,-25.006,32.821,-5.079,-31.258,5.47,21.099,23.834,3.516,12.894,-50.794,-26.569,7.424,-10.94,-10.549,10.549,1.172,12.894
-33.211,18.755,10.94,-19.145,-44.542,10.549,-26.178,37.9,10.94,-36.728,0.391,34.383,32.039,5.47,21.88,-51.966,-32.821,0.781,-10.159,-12.894,12.503,0,21.88
-16.801,10.549,7.814,-17.973,-15.238,-13.675,-23.834,37.9,5.47,-37.9,-6.252,29.695,23.443,19.536,6.252,-60.171,-38.681,-4.689,-7.033,-10.159,26.569,3.516,6.252
-5.079,0.781,9.768,-0.781,-1.563,-39.072,-17.973,66.422,-25.397,-35.556,-26.178,48.84,-15.629,44.933,-12.503,-57.045,-42.589,-14.066,-8.987,-28.523,49.231,19.927,-12.503
-12.112,-2.735,16.41,-16.801,-7.033,-48.449,-11.722,53.529,-58.217,-24.615,-25.397,28.913,-43.37,51.966,-8.987,-80.098,-37.118,-18.755,-15.629,-32.43,66.813,16.801,-8.987
-16.801,1.563,16.801,-33.602,-22.271,-29.304,-12.503,34.383,-55.092,-24.615,-19.536,10.549,-35.165,28.913,-7.424,-77.363,-30.867,-11.331,-16.02,-15.238,32.821,8.596,-7.424
-42.198,5.47,3.907,-28.913,-60.952,-9.377,-21.49,31.648,-30.476,-36.337,-11.722,9.377,-22.662,8.205,0.781,-57.436,-35.946,-11.722,-3.126,-1.563,-8.987,0.391,0.781
-58.608,5.861,-4.689,-33.602,-80.879,-4.689,-28.523,22.662,-20.708,-38.681,-6.642,10.94,-5.47,-10.94,7.033,-47.277,-37.118,-12.894,5.47,10.159,-25.788,-10.94,7.033
-40.244,-1.563,-8.596,-30.476,-55.873,-7.424,-35.556,17.582,-5.47,-41.416,-4.689,21.099,17.973,-26.569,5.47,-29.695,-39.463,-13.675,9.377,22.662,-28.132,-17.192,5.47
-15.238,-5.47,-10.549,-21.099,-22.271,-17.973,-37.9,25.397,-10.159,-39.072,-4.689,16.02,7.033,-12.112,3.126,-38.291,-45.714,-16.02,11.331,19.145,-19.536,-13.284,3.126
2.735,-7.033,-9.377,-18.755,9.377,-34.774,-38.291,31.648,-30.867,-32.43,-5.079,5.861,-14.457,2.735,1.563,-55.092,-49.621,-16.41,10.159,10.159,-15.238,-0.781,1.563
12.503,-10.94,-8.596,-25.006,17.973,-32.039,-39.072,21.099,-38.681,-25.397,-3.126,19.927,-9.768,-4.689,1.172,-34.774,-49.231,-14.457,9.377,19.145,-17.192,-4.298,1.172
-9.377,-14.066,-4.298,-18.364,-11.722,-25.788,-37.9,29.304,-36.728,-30.476,-1.954,32.43,-12.503,-13.675,1.172,-13.675,-50.403,-10.549,5.079,29.695,-32.43,-7.033,1.172
-26.178,-14.847,-7.033,-12.503,-38.291,-25.006,-39.853,42.979,-40.635,-34.383,-4.298,19.927,-34.383,-3.126,4.298,-26.96,-53.138,-14.847,7.814,17.582,-33.993,-0.781,4.298
-32.039,-16.801,-0.391,-15.238,-46.496,-23.834,-39.463,44.151,-35.165,-32.821,-4.689,10.159,-32.039,-2.344,9.377,-39.463,-48.84,-16.801,1.172,8.596,-20.708,3.126,9.377
-23.443,-18.755,4.689,-12.503,-37.9,-16.801,-37.118,41.807,-19.536,-35.165,-0.391,5.861,-15.238,-11.722,3.516,-26.569,-42.979,-16.41,-3.907,25.788,-22.271,-4.689,3.516
1.172,-24.615,2.344,-6.642,-10.159,-18.364,-39.072,41.026,-21.88,-33.211,-1.563,11.722,-9.377,-18.364,0.391,-19.536,-45.714,-20.317,-1.563,29.304,-16.02,-1.172,0.391
4.689,-23.443,0.391,-1.172,-7.033,-19.536,-42.198,49.621,-31.258,-36.337,-11.331,24.225,-23.443,-10.159,-1.172,-20.317,-44.542,-25.397,0.391,14.457,0,2.735,-1.172
3.126,-21.49,0.391,-0.391,-9.768,-19.145,-38.681,49.231,-39.463,-34.774,-17.582,35.946,-24.615,-5.861,-6.642,-19.927,-35.165,-27.35,0.391,9.768,17.582,1.172,-6.642
-17.582,-29.304,4.689,23.443,-32.43,-34.774,-29.304,78.926,-65.641,-26.569,-29.695,64.469,-42.589,2.735,-5.079,-13.284,-29.695,-27.35,-3.907,-3.126,39.072,7.424,-5.079
-30.085,-24.225,13.675,24.615,-50.794,-32.039,-21.49,89.475,-66.032,-18.755,-29.695,62.125,-53.138,21.49,2.344,-24.615,-19.145,-25.006,-12.894,-18.755,38.681,17.582,2.344
-41.807,-12.112,21.49,1.172,-64.86,-10.159,-14.847,59.78,-55.092,-11.722,-14.457,41.026,-33.602,12.894,4.689,-26.96,-4.298,-19.145,-20.708,-8.987,29.695,9.768,4.689
-32.43,-13.284,11.722,-0.391,-55.482,2.344,-25.397,42.979,-48.059,-16.41,-5.861,35.946,-18.755,-12.112,5.079,-10.549,-10.159,-16.02,-10.94,17.192,-3.516,-3.516,5.079
-6.642,-10.94,9.377,0.391,-28.523,11.331,-30.085,39.463,-50.403,-26.569,-3.126,18.755,-30.476,-21.49,0,-11.331,-12.112,-14.847,-8.596,20.317,-12.503,-6.252,0
22.662,-9.377,2.735,-9.768,4.298,15.629,-35.165,20.708,-38.681,-33.993,-4.298,19.145,-17.192,-33.211,-10.159,0.391,-13.284,-18.364,-1.954,24.615,-13.675,-10.94,-10.159
28.523,-9.377,10.94,3.516,16.41,14.066,-31.258,34.383,-31.648,-34.383,-4.298,39.072,-5.47,-46.886,1.954,16.02,-16.02,-13.675,-10.159,24.615,-18.364,-10.94,1.954
23.443,1.172,13.675,10.159,16.41,5.861,-21.88,48.449,-21.099,-30.867,-4.298,25.006,-14.457,-29.304,8.596,1.954,-13.284,-10.94,-12.894,7.424,-29.695,0.391,8.596
1.172,11.331,15.629,6.642,-1.172,11.722,-20.317,46.105,0.781,-26.96,-0.391,12.112,-7.033,-11.331,10.549,-9.377,-8.205,-7.033,-14.847,-1.563,-39.463,10.159,10.549
-13.284,2.344,21.49,8.596,-12.503,15.629,-20.317,37.9,5.861,-21.49,4.689,26.178,8.987,-22.271,18.755,8.205,-3.907,-1.954,-20.708,15.238,-39.463,1.563,18.755
-3.126,-3.126,9.768,17.192,0,10.549,-22.662,33.602,8.205,-17.192,3.907,32.821,19.536,-25.006,14.066,17.582,-1.172,-3.126,-8.987,22.662,-25.397,-3.126,14.066
-1.563,-12.894,5.861,9.768,-1.954,17.192,-30.085,17.192,3.126,-16.801,1.172,4.689,5.079,-7.814,3.907,-10.549,-0.391,-11.331,-5.079,19.145,3.516,1.563,3.907
-10.159,-18.364,10.94,5.47,-18.364,33.211,-32.039,5.47,0,-16.801,4.298,-4.689,-2.344,-8.596,11.722,-20.708,1.172,-9.768,-10.159,25.397,14.847,-0.391,11.722
-19.927,-22.271,16.801,26.178,-28.523,36.337,-28.913,21.88,-8.596,-12.503,2.735,6.252,1.563,-20.317,10.94,-5.47,0,-4.298,-16.02,33.211,10.549,1.172,10.94
-21.88,-26.178,16.41,30.085,-26.569,28.132,-28.132,25.006,-14.066,-11.722,-1.954,8.596,-11.722,-11.331,8.987,-7.814,0,-5.079,-15.629,31.258,9.768,7.424,8.987
-29.695,-22.662,28.132,31.648,-29.304,17.192,-22.271,41.416,-24.225,-14.457,-8.596,23.053,-20.317,-1.172,1.563,-6.252,0,-0.391,-27.35,18.755,26.178,11.722,1.563
-23.053,-25.397,17.192,51.575,-15.238,-12.112,-18.364,66.422,-41.416,-9.377,-28.523,48.449,-27.35,7.033,0,-11.722,-4.689,0.391,-16.41,-1.563,58.999,12.894,0
-16.801,-23.053,8.596,35.556,-14.847,-23.053,-6.252,49.231,-35.946,-6.252,-24.225,32.43,-24.615,19.536,-1.563,-29.695,-2.735,4.689,-7.814,-2.735,70.33,7.814,-1.563
0,-8.205,22.271,14.847,2.735,-9.768,4.689,32.039,-12.112,-5.079,-8.205,12.112,-5.861,20.708,7.033,-36.728,2.344,14.847,-21.49,-1.954,56.654,8.596,7.033
14.847,-6.642,18.755,21.49,19.536,0.391,-1.563,29.695,5.079,-9.377,1.563,30.867,12.503,1.172,12.894,-0.391,-2.735,19.536,-17.973,19.145,16.41,3.516,12.894
26.178,-5.861,32.039,10.159,29.695,10.549,-1.172,23.443,12.503,-7.424,11.331,19.927,19.145,-5.861,18.755,4.689,-1.172,21.88,-31.258,28.523,-13.675,4.298,18.755
14.066,-0.391,35.165,12.894,21.099,17.192,-3.516,28.132,16.801,-10.549,14.847,9.768,14.457,-4.298,18.364,0.391,1.563,20.708,-34.383,26.178,-26.569,8.596,18.364
-10.159,-3.126,30.476,15.629,-4.298,16.02,-6.642,26.569,5.47,-8.987,12.894,30.085,12.894,-5.861,16.801,14.457,1.172,17.582,-29.695,26.178,-25.788,13.675,16.801
-29.695,-6.642,23.443,7.033,-27.741,17.973,-3.516,8.987,-3.126,-4.298,12.112,34.383,9.377,-1.954,16.41,13.284,1.172,17.192,-22.662,23.834,-8.987,14.066,16.41
-34.774,1.563,16.02,6.642,-35.556,24.225,0,1.563,-18.755,-3.907,19.145,6.642,-23.053,12.503,23.443,-11.722,3.516,17.192,-15.238,11.331,-6.252,15.629,23.443
-26.96,2.344,23.053,6.252,-25.397,23.443,5.079,0.781,-22.662,-0.781,22.271,5.079,-27.741,21.88,20.317,-12.112,3.126,18.755,-22.271,2.735,1.954,19.145,20.317
-2.344,-8.596,22.662,19.145,0.781,19.927,3.126,6.642,-9.377,0.781,19.536,28.523,-8.987,1.954,30.867,14.847,3.126,21.49,-21.88,17.192,0.391,1.563,30.867
7.033,-8.205,32.039,18.755,9.377,20.708,8.987,9.377,-2.344,0.391,23.443,33.602,3.907,-9.377,29.695,29.695,6.642,25.397,-31.258,22.662,-3.126,-0.391,29.695
10.94,1.563,32.039,17.973,9.768,26.96,10.94,14.847,5.861,-2.344,30.085,23.443,1.172,-8.205,46.886,16.801,6.252,27.35,-31.258,14.066,-17.192,5.079,46.886
16.41,8.205,25.788,17.192,18.364,28.132,5.47,16.02,15.238,-8.205,28.132,29.695,3.516,-12.894,57.436,16.02,3.516,31.258,-25.006,14.457,-29.304,7.814,57.436
10.159,10.549,24.225,21.88,13.284,24.225,7.814,23.443,6.642,-10.94,23.053,30.867,-1.172,-11.331,46.886,14.066,1.954,36.728,-23.443,9.768,-12.894,8.596,46.886
-1.172,9.768,19.536,23.834,-6.642,14.847,12.112,31.648,-3.126,-11.331,17.192,23.053,-11.722,-3.126,42.979,-2.735,0,37.509,-18.755,-3.907,0,16.02,42.979
-21.099,-3.907,21.49,42.198,-21.49,-11.722,9.768,62.515,-10.159,-8.987,-8.596,46.496,-15.629,14.847,25.006,-8.596,-3.516,32.821,-20.708,-19.145,39.072,22.662,25.006
-29.304,-10.159,27.35,42.198,-35.165,-19.145,17.973,66.813,-12.503,-8.205,-10.94,53.138,-16.41,22.662,25.397,-11.331,-2.735,36.728,-26.569,-23.053,62.125,21.099,25.397
-29.304,1.172,35.946,19.145,-40.244,-5.47,32.821,40.244,-21.49,0.391,12.112,16.801,-19.145,21.49,35.556,-30.476,4.298,44.542,-35.165,-16.02,45.324,19.536,35.556
-18.755,9.377,28.913,13.675,-27.35,10.549,22.662,27.741,-5.861,-3.907,27.741,25.397,-4.689,0.391,50.403,-2.735,2.735,47.277,-28.132,3.516,-3.516,12.503,50.403
-4.689,12.112,32.821,7.033,-12.112,28.132,17.973,14.066,8.987,-5.079,38.291,29.695,10.159,-8.205,56.654,12.503,5.861,48.449,-32.039,16.41,-17.192,7.033,56.654
7.814,17.973,31.648,3.516,1.954,35.556,16.02,8.596,16.41,-5.47,39.853,8.596,16.41,-16.41,55.873,2.735,7.424,43.37,-30.867,17.582,-26.569,8.205,55.873
11.722,17.582,26.569,7.424,7.424,30.476,8.987,17.582,28.523,-13.284,28.913,0.391,17.582,-14.066,47.277,-7.424,2.344,34.774,-25.788,11.722,-26.96,12.503,47.277
9.377,10.549,26.178,8.205,3.516,23.834,8.205,19.145,33.211,-14.847,16.801,17.973,21.88,-9.377,36.337,3.126,0.391,26.569,-25.397,10.94,-11.722,14.457,36.337
-2.735,12.112,26.96,2.344,-6.642,22.662,10.94,12.894,20.317,-14.457,15.629,20.708,19.927,-22.271,32.43,10.94,-0.391,23.443,-26.178,15.238,-13.284,13.284,32.43
-18.755,14.457,26.178,3.907,-22.271,22.662,9.377,15.629,1.954,-13.284,15.238,7.424,-1.172,-12.112,30.867,-5.079,-2.735,19.927,-25.397,7.424,-2.344,10.94,30.867
-28.523,13.284,23.834,7.033,-30.867,17.582,7.814,20.708,-7.424,-10.159,10.549,10.94,-22.271,3.516,33.993,-11.722,-0.781,16.02,-23.053,2.344,-1.172,14.457,33.993
-17.582,5.079,24.615,6.642,-17.973,13.675,10.159,13.284,-8.596,-7.033,17.192,16.02,-10.159,-4.689,33.993,-1.563,0.391,22.271,-23.834,18.755,0.391,6.252,33.993
3.516,4.689,32.821,5.47,5.079,19.927,11.331,9.768,0.391,-6.642,28.523,16.02,3.907,-10.549,37.509,5.861,-0.391,30.476,-32.039,29.304,-5.861,2.344,37.509
6.252,0.781,30.476,8.596,6.642,19.145,3.126,16.801,0.391,-8.987,25.397,23.053,-2.735,-9.377,44.542,6.252,-3.126,30.476,-29.695,21.49,-11.722,3.907,44.542
-2.735,-0.391,31.258,9.768,-5.861,20.317,2.735,20.708,-13.284,-7.033,21.49,28.913,-10.549,-18.364,51.966,5.079,-0.781,30.867,-30.476,15.238,-3.516,0.391,51.966
-28.523,0.391,37.118,17.973,-33.211,21.099,8.987,29.695,-33.993,-3.126,16.02,23.053,-22.271,-9.377,39.853,-6.642,5.079,31.648,-36.337,5.079,27.35,3.516,39.853
-37.9,-11.331,33.211,34.383,-48.059,5.861,8.987,51.184,-53.138,0.391,-7.033,39.463,-43.37,10.94,26.569,-15.629,6.642,21.099,-32.43,-8.205,57.045,16.801,26.569
-63.297,-12.503,41.807,23.443,-75.409,1.563,18.755,43.761,-64.86,6.252,-8.205,21.49,-55.873,26.96,25.006,-43.37,11.722,16.801,-41.026,-16.41,84.005,23.053,25.006
-52.747,-6.642,44.151,10.549,-54.31,6.252,19.927,22.271,-56.264,9.377,3.126,1.563,-37.118,19.145,23.443,-48.059,15.238,25.788,-43.37,2.735,74.628,11.722,23.443
-41.026,-9.768,38.291,16.02,-45.714,16.41,10.94,19.927,-49.621,5.079,10.159,6.252,-27.35,-1.954,29.695,-28.523,4.298,25.788,-37.509,25.397,32.039,4.298,29.695
-46.496,-7.033,39.853,9.768,-52.747,25.788,8.987,13.675,-33.211,3.907,16.41,15.629,-10.159,-11.331,31.648,-8.205,5.47,25.397,-39.072,31.648,11.331,2.344,31.648
-28.132,6.252,31.648,11.331,-29.304,27.741,7.033,14.457,-14.066,0.391,17.973,31.258,14.847,-28.523,33.993,14.457,8.987,21.49,-30.867,25.788,1.172,-4.298,33.993
-13.284,0,25.788,15.629,-13.284,22.271,0.391,18.755,-8.987,-2.344,11.722,22.662,10.549,-17.192,24.615,3.516,8.205,10.94,-25.006,21.88,5.079,-2.344,24.615
-6.642,-11.722,35.556,12.503,-1.172,10.94,-0.781,20.708,-7.033,-5.47,7.814,7.814,3.516,0.391,15.629,-16.41,10.549,3.907,-34.774,30.476,11.722,3.126,15.629
-10.549,-17.973,41.026,6.642,3.516,5.079,-2.735,11.331,-1.172,-6.252,7.424,12.894,19.927,-10.159,8.596,-6.252,13.284,3.516,-40.244,39.853,23.834,-7.033,8.596
7.424,-19.536,29.695,8.987,21.88,2.735,-6.642,7.424,-8.205,-5.079,5.079,19.927,25.397,-19.927,-0.391,6.252,7.814,1.563,-28.913,47.277,17.973,-11.722,-0.391
-28.913,-41.416,42.198,15.629,-21.49,1.172,-9.377,16.02,-26.178,-6.642,0.781,8.987,-1.954,-11.722,-1.563,-7.033,2.344,-3.126,-41.416,66.032,5.861,-7.033,-1.563
-55.092,-22.662,25.788,10.94,-57.827,4.689,-2.344,13.675,-34.383,-5.861,3.516,6.252,-14.457,-4.298,3.126,-15.629,4.298,0.391,-25.006,36.728,11.331,-4.689,3.126
-35.165,-4.298,12.112,5.47,-41.416,10.549,2.344,5.47,-28.913,-4.298,11.331,11.722,0.391,-18.364,6.642,0,5.079,7.033,-11.331,26.569,0.391,-14.847,6.642
-33.602,-22.271,23.053,12.112,-36.337,7.814,-1.954,8.987,-39.463,-4.689,15.629,19.145,-7.814,-24.615,14.847,6.642,3.516,6.642,-22.271,60.952,-28.523,-15.629,14.847
-26.96,-32.039,36.337,17.192,-30.085,5.47,-3.126,21.88,-27.35,-6.252,8.987,30.085,0,-10.549,12.112,2.344,6.642,3.907,-35.556,55.092,-5.47,-9.377,12.112
5.47,-42.589,45.324,20.317,-7.424,0,3.907,32.821,-16.41,-3.907,0.781,34.383,10.549,-11.331,17.582,-3.126,9.377,1.954,-44.542,54.701,5.079,-10.94,17.582
-13.675,-66.032,55.092,44.151,-33.993,-26.569,14.847,65.25,-31.258,0,-17.582,46.886,-4.689,-3.126,9.768,-4.689,6.252,-3.907,-54.31,54.31,30.085,-4.689,9.768
-30.867,-81.661,69.939,44.933,-68.376,-29.695,29.304,71.893,-39.463,5.47,-20.708,32.43,-18.364,15.629,5.079,-25.788,9.768,-6.252,-69.158,69.548,42.979,0.391,5.079
-14.066,-23.834,6.252,20.317,-78.926,-20.708,41.807,46.105,-42.589,7.814,-10.549,14.847,-19.536,10.159,5.47,-27.741,8.205,1.563,-5.47,0.391,46.105,-7.424,5.47
7.814,-60.171,32.821,10.549,-55.092,-24.615,36.337,33.602,-47.668,1.563,0.781,13.675,-22.662,-9.768,8.205,-8.987,-3.126,8.596,-32.039,65.641,-8.205,-19.145,8.205
34.383,-58.217,32.43,3.907,-25.006,-13.284,25.006,26.96,-39.463,1.172,8.987,5.079,-16.801,-12.112,18.364,-13.675,-5.861,11.331,-31.648,68.376,-25.006,-20.317,18.364
66.422,-76.972,46.886,-1.954,9.768,-7.424,16.41,15.238,-21.099,-1.172,10.549,16.41,5.47,-19.145,15.238,1.954,-6.642,9.768,-46.105,90.256,-26.569,-22.662,15.238
66.813,-148.474,98.462,4.689,-8.987,-22.271,29.304,24.225,-9.377,-5.079,8.987,28.913,27.741,-28.132,8.596,13.675,-10.549,7.033,-97.68,156.679,-20.317,-28.132,8.596
50.012,-123.468,54.31,14.457,-41.416,-11.722,19.145,30.867,-22.662,-2.344,2.735,10.549,14.847,-21.88,0,-6.252,-5.861,-1.172,-53.529,117.607,-14.066,-20.317,0
32.039,-24.615,-41.026,5.861,-60.171,-0.781,14.066,19.927,-28.132,-1.563,0.391,-10.94,0.391,-13.284,-6.642,-22.662,-0.781,-6.252,41.807,12.503,8.205,-23.834,-6.642
20.708,-62.906,-12.503,2.735,-68.376,5.079,-0.391,11.722,-30.867,-4.298,-3.907,4.298,7.814,-37.118,-7.033,-0.391,-2.735,-6.252,13.284,50.403,-0.391,-33.211,-7.033
8.205,10.94,-52.747,-2.735,-50.403,11.331,-8.596,11.331,-27.35,-1.954,-6.642,10.159,11.331,-37.9,-8.596,7.814,0,-5.861,53.529,-3.126,-8.596,-26.569,-8.596
-16.41,108.23,-73.846,-19.536,7.033,25.788,-35.946,0.391,-9.768,1.563,-7.424,-5.47,12.112,-19.145,-1.954,-13.284,4.298,-12.503,74.628,-127.375,63.687,-15.629,-1.954
-9.768,27.35,10.549,-19.927,39.463,24.225,-49.231,-7.424,7.424,5.861,-2.344,-12.503,25.397,-12.112,5.079,-20.708,3.126,-14.457,-9.768,-22.662,44.542,-12.894,5.079
-1.172,21.88,-6.252,-3.907,26.569,19.536,-39.463,1.172,-6.642,10.159,-1.954,-4.298,19.536,-8.987,-3.126,-11.331,0.391,-14.066,7.033,-22.271,46.105,-5.861,-3.126
-1.954,16.41,-38.681,5.861,-13.675,21.49,-36.337,10.549,-17.582,14.457,-5.861,-1.172,9.377,-5.47,0.391,-15.238,3.126,-19.927,39.463,-44.151,50.403,-6.642,0.391
1.954,-25.006,-18.755,12.894,-13.284,-3.516,-29.304,18.364,-27.35,17.582,-15.629,2.735,1.563,2.344,-2.344,-25.397,6.642,-26.96,19.536,2.735,53.919,-10.159,-2.344
-8.596,-19.927,-34.774,18.364,-40.244,-21.49,-25.006,41.807,-35.165,12.503,-37.9,21.099,-8.596,13.675,-11.722,-32.821,7.814,-35.946,35.556,-37.9,85.177,-0.391,-11.722
-16.41,5.861,-32.43,5.861,-27.741,-29.695,-14.847,36.337,-25.788,12.503,-31.648,0.391,-4.298,25.006,-16.41,-50.012,14.847,-39.072,33.211,-75.018,120.342,0.781,-16.41
-1.563,10.94,-17.582,-14.847,4.689,-12.894,-22.271,7.033,-7.814,8.205,-19.145,-14.847,12.894,16.801,-14.066,-50.012,17.192,-30.476,18.364,-62.515,115.653,-5.079,-14.066
21.099,-22.271,-1.563,-7.424,22.662,-11.722,-25.397,3.516,-14.066,-1.954,-6.642,0.781,15.629,-10.549,-12.894,-16.02,2.735,-25.788,2.344,-6.642,75.018,-14.066,-12.894
12.112,-20.708,-15.629,-0.781,-0.781,1.954,-26.569,0.781,-22.662,-4.689,5.861,-1.954,10.94,-23.053,-8.596,-3.516,-1.954,-19.145,16.41,-0.391,49.231,-19.536,-8.596
-5.861,-10.159,-19.927,1.172,-19.536,17.973,-30.867,-2.735,-24.225,0,8.987,-5.47,9.768,-29.695,2.344,-3.907,-0.391,-14.847,20.708,8.205,30.867,-26.96,2.344
-26.178,22.271,-50.794,6.252,-37.509,8.205,-23.443,4.689,-29.304,1.563,5.47,14.847,10.159,-28.523,-3.126,13.675,-0.391,-16.801,51.575,-32.039,48.449,-25.006,-3.126
-41.416,-32.039,-10.159,12.894,-61.734,5.861,-21.49,7.814,-34.774,4.689,0.391,28.523,0,-19.145,-7.033,25.788,0.781,-17.192,10.94,11.722,48.059,-17.192,-7.033
-47.277,-5.861,-21.099,6.252,-66.422,10.159,-12.112,0.391,-40.244,11.331,0.391,1.954,-14.066,-6.642,-5.079,0.391,1.954,-15.238,21.88,-16.02,56.654,-16.801,-5.079
-10.159,-14.847,-17.582,5.47,-34.383,5.47,-9.377,1.563,-36.728,6.642,-3.516,-7.033,-20.317,-1.563,-10.94,-7.814,-1.563,-14.066,18.364,-26.569,64.078,-13.284,-10.94
16.801,-85.177,28.913,17.973,-6.252,1.563,-14.066,-1.563,-35.556,3.516,-6.642,5.079,-12.503,-16.02,-15.238,10.94,-3.516,-15.629,-28.132,48.449,53.919,-16.801,-15.238
11.722,-17.582,-10.549,4.689,-1.954,7.424,-6.642,-10.159,-21.88,0.391,-2.344,4.298,3.126,-28.913,-18.364,24.615,-2.344,-14.457,11.331,-8.205,50.403,-22.271,-18.364
3.516,-24.615,20.708,-5.47,1.563,21.88,-10.549,-19.145,-1.954,-3.907,5.47,-9.768,10.159,-28.523,-9.377,17.582,-0.781,-14.066,-19.927,-6.642,60.562,-23.443,-9.377
-2.735,-67.985,42.979,6.252,-10.549,9.768,-3.516,-15.629,-0.391,-10.94,4.689,-0.781,5.47,-34.383,-5.861,25.006,-5.47,-13.284,-42.198,48.449,42.979,-26.178,-5.861
-43.37,-47.277,40.244,12.112,-28.913,12.112,-5.079,-15.629,-10.94,-8.205,2.735,5.47,-7.033,-30.867,-3.907,30.085,-4.298,-8.987,-39.463,35.946,46.496,-23.053,-3.907
-46.886,-39.463,31.258,20.317,-50.012,12.112,8.205,-4.298,-14.457,1.563,0.391,4.689,-5.861,-23.443,2.344,19.536,-1.563,-7.814,-30.476,0.391,70.72,-17.973,2.344
-41.807,-51.966,18.755,48.84,-51.966,-10.159,10.159,26.96,-28.913,-1.563,-22.271,29.304,-33.211,6.642,-10.549,12.503,-4.689,-14.457,-17.973,-17.582,95.336,6.642,-10.549
-44.933,-22.662,5.079,39.853,-48.059,-1.954,8.987,19.145,-27.35,0.781,-23.834,30.085,-33.211,12.894,-10.94,11.331,-2.735,-10.549,-4.298,-55.873,112.527,12.503,-10.94
-34.383,-8.987,7.424,17.192,-41.416,0.781,23.053,0,-17.582,4.689,-5.079,-1.954,-22.662,17.973,-12.894,-1.954,-2.344,-2.344,-6.642,-62.515,112.137,7.033,-12.894
5.861,-16.41,25.788,9.377,24.615,17.582,-1.172,-15.629,-2.735,-5.861,6.642,-1.563,-17.582,0.781,-7.424,19.927,-10.549,1.563,-25.006,-14.457,69.548,-3.516,-7.424
11.331,-20.708,31.258,0.391,42.979,22.271,-8.205,-33.211,1.172,-4.298,16.02,0.391,-1.563,-18.755,-1.954,36.728,-12.894,6.252,-30.476,7.424,50.794,-17.582,-1.954
-14.847,-4.689,15.238,-1.954,6.252,23.053,0,-35.165,-11.722,2.344,25.788,-15.629,-3.126,-26.178,3.516,26.569,-10.549,10.159,-14.457,1.563,33.211,-26.569,3.516
-12.894,-20.708,19.145,6.252,-8.596,22.271,3.907,-23.443,-24.225,2.735,24.615,-15.629,-10.94,-19.536,0.391,18.755,-10.94,8.205,-18.364,8.596,29.304,-21.88,0.391
-5.861,-36.728,29.304,8.596,-9.768,18.755,10.94,-23.443,-14.457,1.563,23.053,2.735,9.768,-22.662,-4.689,31.258,-8.987,8.987,-28.523,26.569,31.648,-20.317,-4.689
-14.457,-37.9,22.271,10.159,-26.96,3.126,26.178,-19.927,1.172,-4.298,26.96,7.814,33.602,-26.96,-10.549,36.337,-10.94,12.503,-21.49,38.681,19.536,-19.927,-10.549
-5.079,-42.979,38.681,5.079,-14.457,12.894,17.582,-19.536,9.377,-10.549,28.913,-6.642,27.35,-14.847,-8.596,17.582,-15.629,10.549,-37.9,32.821,24.225,-14.066,-8.596
-17.192,8.987,9.768,1.172,0.391,26.569,-1.954,-21.099,0.391,-12.894,27.741,-12.894,10.94,-13.675,-2.344,7.424,-16.41,8.596,-8.987,-18.364,41.807,-16.801,-2.344
-35.946,0,0.781,2.344,-28.132,12.503,6.252,-23.834,-9.768,-8.205,33.993,-10.159,12.503,-20.708,0.781,11.722,-13.675,12.503,0,-3.126,25.006,-20.317,0.781
-30.476,-3.516,6.252,-8.987,-28.913,35.946,-0.391,-43.761,-26.96,-0.391,41.416,-20.317,4.689,-32.039,6.642,14.066,-8.987,14.066,-5.47,4.298,23.834,-28.523,6.642
-10.94,7.424,-10.94,-2.344,-3.126,33.993,-8.987,-39.463,-38.681,-3.907,34.774,-12.894,-12.503,-27.35,0.781,17.973,-10.159,7.033,11.722,-5.861,25.788,-22.662,0.781
8.205,-48.449,30.476,2.344,9.768,13.675,0.781,-30.867,-35.946,-1.172,27.741,-6.642,-13.675,-18.364,0,15.238,-5.861,5.079,-29.695,46.105,17.582,-12.503,0
14.457,-12.503,-5.47,0,6.252,12.112,9.377,-32.039,-34.383,4.689,21.88,-10.94,-14.066,-8.596,-3.126,7.814,1.954,4.298,6.252,-2.344,32.43,-6.252,-3.126
-4.689,-3.516,-12.503,12.894,-8.205,0.781,8.987,-10.159,-40.244,8.987,-1.563,10.94,-23.053,4.298,-13.284,9.768,4.298,-3.516,13.284,-32.039,62.125,3.907,-13.284
-28.132,-11.722,6.642,-2.735,-37.509,0.391,19.145,-17.192,-38.681,19.927,-0.781,-6.642,-27.35,25.397,-10.549,-14.457,16.02,-7.033,-5.861,-42.589,84.396,14.066,-10.549
-33.602,-7.424,4.298,-24.225,-42.979,16.02,14.847,-49.231,-26.96,25.006,7.033,-33.993,-8.205,13.675,-8.205,-25.397,27.35,-3.907,-3.516,-21.099,67.204,0.391,-8.205
-28.913,-14.847,-1.563,-15.629,-34.383,29.304,-3.126,-53.138,-17.192,13.284,7.814,-34.383,-4.689,-5.079,-10.159,-8.987,17.973,-12.112,2.344,4.689,39.853,-8.987,-10.159
-16.801,-39.853,23.443,-20.317,-20.708,30.867,-8.205,-55.482,-9.768,6.252,12.112,-30.476,5.861,-17.582,-14.847,4.689,17.192,-16.41,-22.662,37.118,26.96,-13.675,-14.847
-10.549,-29.695,9.377,-18.364,-16.02,21.88,-3.516,-52.357,-8.987,3.126,14.066,-14.066,19.145,-35.946,-13.675,26.569,15.238,-12.894,-8.596,26.569,21.099,-21.88,-13.675
-13.675,-30.867,-4.689,-3.907,-37.9,13.675,5.079,-35.946,-20.708,0.391,10.94,-13.284,8.596,-36.728,-15.238,22.271,8.205,-7.814,5.47,28.132,13.284,-24.615,-15.238
-28.132,2.735,-19.536,-8.205,-53.919,26.569,6.252,-32.821,-30.476,5.861,13.284,-20.317,-1.954,-23.053,-14.847,9.377,11.722,-0.391,20.317,-21.099,36.728,-17.973,-14.847
-28.523,-5.079,-6.252,-8.205,-48.449,19.536,15.238,-36.337,-23.443,13.675,20.708,-3.516,15.238,-30.085,-5.47,27.741,19.145,12.112,7.033,8.205,25.788,-23.443,-5.47
-13.284,2.344,-41.807,5.079,-39.463,8.205,17.973,-33.993,-25.006,14.066,21.099,10.549,23.834,-39.463,-7.424,44.933,19.536,16.41,42.589,17.582,6.642,-27.741,-7.424
2.344,0.391,-7.814,1.563,-7.033,24.615,6.642,-27.35,-17.973,17.582,20.317,6.252,12.894,-14.847,-4.689,33.602,22.662,14.066,8.596,-3.907,32.039,-12.894,-4.689
-1.954,-10.94,1.954,3.126,-10.159,6.252,15.238,-18.755,-15.629,19.536,19.927,2.735,13.675,-6.642,-10.159,30.867,25.397,14.847,-1.172,0.391,34.774,-10.94,-10.159
-3.907,-35.165,11.331,-2.344,-18.364,8.205,15.238,-35.165,-28.132,20.708,25.788,-1.954,12.503,-20.708,-15.629,41.026,23.834,17.582,-10.549,37.118,20.708,-24.225,-15.629
5.861,-30.867,16.02,-1.172,-9.377,24.225,7.033,-32.039,-32.039,20.317,26.178,7.424,11.331,-24.615,-25.006,60.952,20.317,16.801,-15.238,19.927,30.085,-24.225,-25.006
-4.689,-17.973,-10.94,5.47,-26.569,16.41,2.735,-21.49,-46.886,21.88,15.238,22.662,-1.563,-22.271,-27.741,66.422,17.973,13.284,11.722,4.298,22.662,-22.662,-27.741
3.516,-32.821,-20.708,10.549,-22.662,1.172,5.079,-24.225,-51.575,25.006,6.252,32.821,-3.907,-18.364,-30.476,66.032,21.49,9.768,21.49,16.801,27.35,-23.443,-30.476
4.689,-55.092,-2.344,33.602,-22.662,-14.066,11.331,5.47,-48.84,28.132,-10.549,60.562,-2.344,-7.424,-31.258,70.72,23.053,5.47,3.126,9.768,59.78,-15.238,-31.258
-9.377,-52.747,-11.331,34.383,-39.072,-31.648,21.88,9.377,-30.476,29.695,-17.192,52.747,6.642,8.987,-29.695,48.449,25.397,4.689,12.112,1.172,60.562,-5.079,-29.695
-33.602,-26.569,-8.205,6.252,-55.482,-11.722,27.741,-23.053,-21.099,32.821,1.172,25.788,17.192,9.377,-23.053,37.118,36.337,10.549,8.987,-26.96,80.098,-7.033,-23.053
-26.96,-51.575,19.536,8.596,-39.853,1.563,18.364,-30.476,-23.834,30.085,14.457,17.582,21.88,-10.94,-20.317,50.012,28.913,16.02,-18.755,29.304,40.244,-12.894,-20.317
-10.94,21.099,-52.357,0.781,-24.225,16.41,7.033,-41.416,-21.49,26.96,20.317,3.516,22.271,-19.536,-19.145,47.668,23.053,20.708,53.138,-30.085,16.02,-15.238,-19.145
12.894,5.861,-46.496,-5.079,-2.735,16.02,6.642,-53.138,-28.523,27.741,23.443,6.642,19.927,-25.006,-26.96,63.297,18.755,25.788,47.277,-4.298,5.079,-19.927,-26.96
41.416,-13.284,-51.575,-2.344,21.099,8.205,0,-57.827,-28.132,28.132,16.801,19.145,26.178,-30.867,-36.728,79.316,11.722,27.741,52.357,23.834,-9.768,-20.317,-36.728
32.43,-32.43,-32.43,-4.298,10.549,10.549,-0.781,-58.217,-30.867,29.695,11.331,-2.344,11.331,-21.099,-37.118,55.482,9.377,26.96,33.211,40.635,-9.768,-17.582,-37.118
19.145,-48.449,-23.834,-14.457,-20.708,16.41,3.516,-68.376,-27.741,32.039,10.549,-26.569,-3.907,-1.954,-35.165,30.867,8.987,26.96,24.615,32.43,1.954,-11.331,-35.165
-19.145,-39.853,-20.708,-15.629,-42.589,17.582,5.079,-77.753,-27.741,33.602,5.861,-15.238,0.391,-11.722,-37.118,46.496,8.987,25.006,21.49,52.357,-10.549,-11.331,-37.118
-9.768,-47.277,-19.145,-6.642,-33.211,18.755,6.642,-76.581,-26.96,30.085,0.391,-9.768,-1.563,-20.708,-35.946,53.138,7.424,21.099,19.927,54.31,-12.894,-12.894,-35.946
-9.377,-7.424,-56.264,-16.801,-28.523,15.629,5.47,-84.396,-17.582,23.053,-2.344,-25.788,-7.814,-12.503,-33.993,32.039,3.126,14.457,57.045,-5.861,0.781,-10.159,-33.993
-14.457,-15.629,-45.714,-19.927,-19.927,15.238,0.781,-94.164,-10.94,16.02,-1.563,-26.96,-6.252,-15.238,-35.165,34.383,-0.781,14.847,46.496,14.066,-6.252,-11.331,-35.165
-19.927,-41.026,-31.648,-12.503,-28.913,14.457,-1.172,-92.21,-16.41,10.159,0,-18.755,-7.033,-25.006,-37.509,45.324,-7.814,15.238,32.43,46.496,-18.364,-14.457,-37.509
-35.556,-43.761,-14.066,-6.642,-40.635,18.755,0.391,-80.098,-16.801,10.549,-0.391,-15.238,-10.159,-24.615,-29.304,44.542,-12.112,14.066,14.847,36.337,-6.642,-12.894,-29.304
-55.092,-72.674,10.549,0,-63.297,7.033,10.94,-73.846,-18.364,11.331,-5.47,-7.814,-17.973,-19.536,-19.536,37.118,-14.457,13.284,-9.768,63.687,-3.907,-10.549,-19.536
-47.277,-87.912,16.801,25.006,-56.654,-22.662,26.96,-41.416,-37.118,12.112,-27.741,19.145,-42.589,-7.814,-20.317,38.681,-16.41,11.722,-16.02,55.092,8.596,0.391,-20.317
-28.132,-12.112,-26.178,12.503,-16.41,-14.847,34.383,-57.827,-23.443,18.364,-19.536,-0.781,-38.291,-0.391,-5.861,19.536,-5.079,13.675,26.96,-41.026,50.012,-4.298,-5.861
-13.675,-16.41,-18.364,1.954,-0.781,-4.298,34.774,-77.753,-6.252,12.112,-8.987,-10.549,-21.88,-6.642,-6.252,21.49,-1.954,20.708,19.145,-19.536,38.291,-10.549,-6.252
-1.172,-12.894,-23.053,12.112,10.94,10.159,26.178,-74.628,-3.907,3.516,0,17.192,-21.49,-19.536,-4.298,64.078,-7.424,24.615,23.834,-2.344,3.126,-12.112,-4.298
-5.861,-1.563,-21.099,14.457,5.47,27.35,26.178,-75.8,-4.689,7.424,14.066,12.894,-17.192,-25.788,7.424,66.422,-3.516,31.258,21.88,0.781,-12.503,-12.894,7.424
-28.913,-19.536,-16.02,24.615,-36.337,35.556,27.35,-67.985,-16.801,8.205,16.801,11.331,-23.443,-30.867,11.331,64.078,-1.172,34.383,16.801,30.867,-30.476,-16.801,11.331
-32.43,-39.463,0.391,30.476,-49.231,28.132,34.383,-56.264,-50.794,11.722,11.331,39.072,-39.463,-42.198,5.47,89.084,1.172,37.118,0.391,60.171,-38.681,-19.145,5.47
-57.045,-13.675,-7.424,32.43,-57.827,27.741,33.211,-50.403,-45.714,13.284,10.549,50.794,-21.88,-47.668,5.079,94.554,7.033,40.635,8.205,25.006,-5.47,-18.364,5.079
-53.529,-10.159,-7.424,30.085,-53.529,23.834,35.946,-49.621,-21.88,5.079,11.331,25.397,-10.549,-42.198,0,74.237,8.596,40.635,8.205,14.847,4.689,-23.053,0
-29.304,-25.006,5.861,29.695,-24.615,22.271,26.569,-44.542,9.768,-3.516,8.987,19.145,-1.563,-33.602,0,71.893,6.642,36.337,-5.079,20.317,-2.344,-17.973,0
-12.894,-16.41,0.391,38.291,-3.907,19.145,28.132,-35.556,44.933,-1.172,10.549,34.383,20.317,-26.178,1.954,93.773,10.549,35.556,0.391,11.331,-17.582,-6.252,1.954
25.006,-24.615,-12.112,33.993,14.066,14.066,36.337,-44.151,55.092,8.596,17.973,21.88,23.443,-10.159,-0.391,93.382,16.41,34.774,12.894,21.49,-43.37,-1.172,-0.391
32.821,-33.602,-15.238,21.099,18.364,19.536,22.271,-57.827,39.463,10.94,21.099,1.563,-1.172,0.781,-0.391,76.972,16.801,25.006,16.02,39.463,-66.813,-0.781,-0.391
12.503,-12.112,-33.993,12.894,-0.391,16.41,15.238,-53.138,10.94,12.503,18.364,4.689,-23.053,-0.781,-1.563,74.237,14.457,18.364,34.774,22.271,-78.926,-1.172,-1.563
6.252,-21.49,-43.761,17.582,-13.675,5.079,11.331,-44.542,-12.112,11.722,14.066,3.516,-36.728,-3.516,-5.47,65.25,12.503,14.066,44.542,18.364,-73.065,-5.861,-5.47
-12.503,-50.012,-25.397,18.755,-32.821,-0.781,-0.391,-35.556,-32.039,7.424,6.252,0.391,-57.827,-3.126,-3.516,47.668,8.987,7.033,26.178,54.701,-85.568,-5.47,-3.516
-39.072,-42.979,-48.059,33.211,-72.674,-24.225,1.563,-1.954,-46.105,5.861,-17.973,24.615,-78.144,10.159,-1.172,36.728,6.252,-0.781,48.84,1.954,-53.529,7.424,-1.172
-47.668,-64.469,-26.178,33.211,-92.601,-23.834,7.033,3.126,-44.542,10.159,-18.364,20.708,-76.581,21.88,-0.781,23.834,14.847,-1.172,26.96,14.066,-42.589,17.192,-0.781
-61.343,-67.985,-0.391,13.284,-110.183,-7.424,18.364,-18.755,-30.476,16.02,-0.781,-17.192,-66.032,30.867,3.907,-1.172,25.788,2.344,1.172,42.589,-54.31,19.536,3.907
-57.436,-17.192,-34.774,3.126,-90.647,10.549,2.344,-30.867,-21.49,11.331,7.424,-9.377,-62.515,17.973,11.722,20.708,21.88,-3.126,35.556,0,-71.111,16.41,11.722
-19.536,-19.536,-7.424,0.391,-44.151,21.49,1.954,-26.96,-4.689,12.503,16.41,-2.735,-44.151,11.331,18.755,35.946,21.88,-1.954,8.205,13.675,-84.396,15.238,18.755
8.987,-19.145,0,4.689,-0.781,21.099,-0.781,-25.006,-10.549,13.284,20.317,-15.629,-49.621,11.722,20.708,24.615,15.629,-1.563,0.781,21.88,-87.521,14.457,20.708
28.132,-21.88,-17.973,11.722,19.536,3.907,-3.516,-19.145,-5.861,10.159,11.331,-15.238,-59.389,21.88,21.099,17.973,5.861,-4.298,18.755,13.675,-94.164,17.973,21.099
42.198,-50.403,-8.596,17.973,21.88,-8.205,4.298,-16.801,6.252,14.066,5.861,4.298,-35.946,17.582,18.755,32.039,5.47,-5.079,9.377,37.118,-88.303,17.973,18.755
25.397,-49.621,-1.172,13.675,12.112,-7.424,8.987,-25.397,14.066,19.927,11.331,11.331,-24.225,16.801,20.317,44.933,9.377,-1.563,1.954,35.946,-79.316,21.099,20.317
8.987,-59.78,3.126,21.49,-6.642,0.391,1.563,-20.317,10.94,21.49,13.284,2.344,-40.635,31.258,19.927,38.681,8.596,-3.516,-2.344,49.621,-85.958,26.96,19.927
2.735,-3.907,-34.383,16.801,-8.596,8.987,-1.563,-16.801,1.954,28.132,17.582,1.563,-54.31,37.509,31.648,35.165,9.377,-0.391,35.165,-30.476,-58.217,29.695,31.648
2.344,-20.708,-6.252,20.708,-3.126,1.172,10.159,-11.722,4.298,32.821,23.834,7.814,-47.277,37.118,28.132,51.184,9.768,9.377,7.033,3.126,-69.548,31.258,28.132
5.861,-18.364,-0.391,16.02,3.126,16.801,4.689,-22.662,10.549,29.695,31.648,-1.172,-35.556,25.788,25.006,57.045,4.298,15.238,1.172,11.331,-71.111,26.178,25.006
7.814,-27.741,0,16.801,-4.689,11.331,9.377,-19.145,16.801,25.006,28.523,2.344,-38.291,25.397,32.43,54.701,-3.126,14.457,0.781,8.987,-80.879,32.039,32.43
-1.563,-34.383,9.768,27.35,-11.331,-5.079,20.317,-3.126,21.099,24.225,25.006,19.536,-39.463,32.039,39.853,59.78,-6.252,15.629,-8.987,13.675,-82.051,39.463,39.853
-12.112,-43.37,22.271,31.648,-19.927,-5.079,21.099,2.344,5.47,27.741,23.443,18.364,-49.621,34.383,39.072,51.575,-7.033,18.755,-21.49,12.894,-62.515,40.635,39.072
-32.43,-54.31,19.145,50.403,-43.761,-31.648,32.039,26.569,-22.662,31.258,5.861,40.635,-77.363,47.277,37.509,47.668,-12.503,16.801,-18.364,-16.41,-20.317,51.575,37.509
-48.84,-25.788,6.252,42.589,-49.621,-43.761,42.589,24.615,-24.225,34.774,2.735,32.039,-84.786,63.297,40.244,25.397,-9.768,18.364,-5.47,-50.012,3.516,55.873,40.244
-60.171,-24.225,32.821,6.642,-41.026,-15.629,30.476,-18.755,2.735,26.569,10.159,-3.907,-62.125,50.794,39.072,8.596,-5.079,25.397,-32.039,-25.006,0.391,45.324,39.072
-60.171,-22.271,27.35,1.172,-39.463,0.391,17.582,-33.211,21.099,10.94,15.238,-10.94,-49.231,28.913,40.244,17.582,-15.238,23.834,-26.569,-1.954,-32.821,37.118,40.244
-44.151,-17.192,19.927,-9.377,-28.132,6.642,14.847,-45.324,33.211,3.516,15.238,-8.596,-36.728,17.582,34.774,30.085,-16.41,19.927,-19.145,8.205,-48.84,30.867,34.774
-17.192,-47.668,36.728,-13.675,-8.596,4.298,8.987,-48.059,38.681,-1.563,16.02,0.391,-28.523,3.907,35.165,43.761,-16.41,17.582,-35.946,48.449,-71.502,25.788,35.165
-5.47,-17.192,-1.172,-5.861,5.079,-6.252,5.079,-35.165,25.788,3.516,9.768,-7.424,-38.681,16.41,26.96,28.132,-19.536,9.377,1.954,-0.391,-51.966,30.476,26.96
-0.391,-26.569,4.298,-6.642,7.424,-18.755,6.642,-26.569,17.192,7.033,2.344,-19.927,-54.31,32.821,22.271,6.252,-18.364,1.954,-3.516,1.172,-40.244,33.993,22.271
-5.079,-25.006,-6.252,-9.768,-2.735,-15.629,0.391,-29.304,18.755,8.987,2.735,-6.252,-41.416,26.178,24.615,14.847,-15.238,3.907,7.033,3.126,-41.416,29.695,24.615
-18.364,-33.211,0,-21.099,-10.159,-10.159,-7.814,-44.151,23.443,7.424,1.563,-7.814,-28.132,23.053,12.112,18.755,-17.582,1.172,0.781,19.927,-39.463,30.476,12.112
-33.602,-27.741,-14.066,-25.006,-39.853,-10.159,-8.987,-41.807,6.252,3.126,-3.907,-23.053,-48.84,26.569,6.642,-2.344,-21.099,-4.689,14.847,11.331,-41.416,32.43,6.642
-33.602,-42.589,-14.066,-29.304,-50.794,-14.457,-8.596,-45.714,-1.563,3.516,-8.205,-37.509,-58.217,31.648,2.735,-19.927,-16.41,-7.033,14.847,19.536,-41.416,37.509,2.735
-26.96,-37.118,-24.615,-41.026,-39.072,-12.503,-15.238,-62.906,-0.781,2.344,-5.861,-51.184,-48.059,20.708,-9.377,-18.364,-12.112,-12.503,25.397,23.834,-45.324,32.821,-9.377
-29.304,-24.615,-36.337,-34.383,-31.648,-16.41,-23.053,-53.919,-1.172,1.954,-7.033,-50.012,-44.151,12.112,-10.159,-12.503,-10.94,-21.49,37.118,14.066,-44.151,28.523,-10.159
-22.271,-46.105,-30.476,-16.801,-32.039,-36.337,-20.708,-26.96,-12.112,5.861,-14.847,-32.821,-51.184,13.284,-4.298,-12.503,-10.549,-24.225,31.258,20.708,-37.509,28.132,-4.298
-28.913,-17.192,-53.529,-16.801,-32.43,-46.496,-21.099,-16.41,-26.96,13.284,-16.41,-19.145,-55.092,15.238,5.079,-14.457,-8.205,-22.271,54.31,-14.847,-29.304,26.96,5.079
-39.072,-38.681,-41.026,5.079,-46.886,-62.125,-17.192,12.503,-41.807,18.364,-27.741,7.424,-62.515,25.788,2.344,-9.768,-10.94,-20.317,41.807,-12.112,-5.079,28.132,2.344
-46.105,-47.277,-32.821,10.549,-67.204,-67.595,-6.252,24.225,-51.966,23.834,-24.225,-4.298,-71.502,42.589,6.252,-34.383,-10.159,-15.629,33.602,-12.112,4.689,32.039,6.252
-33.602,-30.476,-27.741,-19.145,-46.105,-48.059,-7.424,-9.377,-53.529,24.615,-7.033,-30.085,-67.595,43.37,1.172,-43.761,-2.735,-12.503,28.523,-10.549,6.252,27.741,1.172
-12.894,-39.853,-25.006,-9.377,-25.397,-37.509,-14.066,-10.549,-29.695,14.066,1.954,-38.291,-51.575,34.383,-8.987,-23.834,-7.033,-16.02,25.788,30.085,-32.821,21.49,-8.987
-16.02,-43.761,-25.397,-10.94,-30.085,-36.337,-17.192,-13.675,-17.973,9.377,2.735,-55.482,-41.026,23.443,-10.94,-30.867,-8.987,-23.443,26.178,42.979,-42.198,14.847,-10.94
-1.172,-16.801,-57.827,-14.066,-21.88,-34.774,-14.847,-17.582,-5.861,9.377,-0.781,-42.198,-25.397,7.033,-10.94,-10.549,-8.596,-27.741,58.608,19.927,-53.919,6.642,-10.94
3.907,-31.258,-56.264,-8.596,-23.834,-34.774,-17.973,-14.847,7.424,12.894,-10.159,-25.006,-7.814,-0.391,-14.457,8.987,-11.331,-29.304,57.045,34.774,-60.952,4.689,-14.457
-12.503,-50.403,-38.681,-6.642,-35.946,-26.569,-30.085,-15.238,13.675,18.755,-16.801,-44.933,-9.377,8.596,-9.377,-17.192,-12.112,-31.258,39.463,40.635,-49.621,8.205,-9.377
-19.145,-41.026,-43.761,-10.549,-43.37,-28.132,-23.443,-18.755,4.689,21.88,-19.145,-58.217,-24.615,12.112,-4.689,-33.211,-14.066,-29.695,44.542,35.165,-51.184,5.861,-4.689
-0.391,-44.542,-38.291,-10.94,-29.304,-24.615,-19.536,-19.536,4.689,24.615,-18.755,-37.509,-15.238,6.642,-12.503,-3.907,-12.112,-26.569,39.072,38.291,-53.529,7.424,-12.503
-6.252,-56.264,-14.066,-0.391,-25.006,-20.708,-19.536,-10.94,3.907,26.178,-20.708,-24.615,-10.549,2.344,-18.755,11.722,-9.377,-26.96,14.847,64.86,-58.999,7.033,-18.755
-19.536,-37.118,-13.675,-11.722,-41.807,-19.927,-8.205,-12.112,-3.516,27.35,-19.927,-32.039,-23.834,9.768,-18.755,3.516,-5.47,-28.132,14.457,41.026,-52.357,6.252,-18.755
7.033,-14.847,-32.039,-13.284,-22.662,-6.252,-8.596,-14.847,-6.642,28.913,-14.847,-31.648,-25.397,8.987,-25.006,16.801,-0.391,-23.443,32.821,19.536,-62.125,5.079,-25.006
6.252,-16.41,-29.304,-8.596,-17.973,-4.298,-10.159,-15.629,-3.126,32.821,-10.94,-29.304,-13.284,-1.172,-20.708,24.225,3.516,-18.364,30.085,27.35,-64.86,-0.781,-20.708
8.205,-32.821,-24.615,2.344,-16.41,-15.629,-8.205,-5.079,-10.159,36.337,-12.112,-25.788,-16.41,-0.391,-18.755,24.615,7.424,-19.145,25.397,52.357,-75.409,-0.781,-18.755
3.907,1.172,-44.933,6.252,-23.834,-23.443,-0.391,15.629,-17.582,39.853,-16.41,-10.549,-26.569,5.079,-11.722,28.523,13.284,-19.536,45.714,-25.006,-35.556,1.563,-11.722
-14.066,-21.49,-5.861,26.178,-32.039,-30.867,-3.516,51.575,-20.317,43.37,-30.476,14.066,-31.648,18.755,-7.033,27.35,20.708,-20.708,6.642,-24.225,-6.252,10.549,-7.033
-21.88,-43.761,8.205,26.96,-43.761,-53.138,13.284,52.357,-25.006,49.621,-23.834,2.344,-33.993,32.039,-8.987,14.847,29.695,-21.099,-7.424,3.126,-2.735,9.768,-8.987
-28.913,-75.018,51.184,3.516,-44.542,-32.43,6.252,21.49,-15.238,48.449,-9.768,-13.675,-33.602,33.602,-7.033,15.629,34.774,-17.192,-50.403,47.668,-10.159,3.516,-7.033
-4.298,-41.416,14.066,1.172,-20.317,-15.629,-6.252,12.894,-4.298,41.026,-1.172,1.954,-15.238,5.079,-3.516,51.966,28.523,-16.02,-13.284,33.211,-46.105,-5.861,-3.516
4.689,-57.436,12.503,-0.781,-10.549,-19.536,-10.159,0.391,3.516,35.556,2.344,-13.675,-7.814,-7.033,-5.861,48.84,24.615,-19.536,-11.722,59.389,-60.562,-13.675,-5.861
1.954,-20.317,-16.41,-6.252,-12.894,-12.503,-14.066,-1.172,0.781,29.304,-1.563,-24.225,-16.801,-14.847,-9.377,46.886,19.927,-25.397,17.192,21.49,-63.687,-13.675,-9.377
-4.298,12.894,-40.244,2.344,-14.066,-9.768,-19.536,15.238,3.126,24.225,-10.159,-1.563,-14.066,-28.523,-10.159,69.548,17.582,-30.085,41.026,-20.317,-56.654,-13.284,-10.159
-18.364,-3.126,-24.225,4.689,-20.708,-22.662,-12.894,15.629,-2.735,19.145,-14.066,3.907,-18.364,-30.867,-16.41,73.455,17.582,-33.211,25.006,7.424,-52.747,-9.377,-16.41
-26.96,-15.629,-6.642,2.344,-30.085,-15.238,-11.722,11.331,-2.735,15.629,-11.331,-26.96,-30.085,-21.099,-19.927,46.496,17.973,-36.728,7.424,25.006,-45.324,-6.642,-19.927
-19.536,-2.735,-24.225,5.861,-25.006,-21.88,-8.596,16.41,5.079,8.596,-10.549,-29.304,-39.072,-19.927,-7.424,41.416,14.847,-35.946,25.006,16.02,-59.78,-7.424,-7.424
-17.582,-41.026,22.271,8.205,-20.708,-12.894,-10.159,17.582,17.192,6.642,-8.596,-16.02,-8.205,-34.774,-12.503,56.264,14.066,-34.383,-21.49,54.701,-37.509,-13.284,-12.503
-10.549,-17.582,-1.172,2.344,-10.549,-19.536,-5.47,10.159,24.225,7.814,-4.689,-22.271,4.298,-38.291,-17.192,56.654,9.768,-33.602,1.954,27.741,-30.085,-14.457,-17.192
-12.112,-23.443,5.47,-7.033,-5.47,-23.443,-10.94,2.344,16.801,4.689,-3.907,-31.648,-11.722,-35.165,-13.675,48.449,3.516,-34.383,-4.689,30.085,-41.807,-11.331,-13.675
-18.364,-16.801,-4.689,-10.94,-9.768,-23.443,-17.973,0.391,8.596,3.126,-8.205,-24.225,-19.927,-37.509,-16.41,55.092,0.781,-32.821,5.47,10.94,-41.026,-8.987,-16.41
-21.49,-24.615,-7.424,-1.954,-11.722,-35.946,-13.675,5.861,6.252,1.172,-14.066,-17.973,-24.615,-41.416,-14.847,58.217,0.391,-32.43,8.205,16.801,-44.933,-10.94,-14.847
-25.006,-26.569,-1.954,8.596,-8.205,-39.463,-13.284,17.192,9.377,0.391,-22.662,-13.675,-35.165,-33.993,-10.159,54.31,3.126,-35.165,2.735,8.987,-36.337,-8.596,-10.159
-28.132,-42.198,5.079,33.602,-9.768,-57.045,-11.722,48.449,0.781,0,-44.151,17.192,-46.105,-25.397,-5.861,52.357,5.079,-41.026,-4.298,-5.861,-3.516,-1.954,-5.861
-41.416,-33.993,12.894,34.774,-19.145,-56.654,0,50.012,0.391,3.907,-42.198,16.02,-39.072,-23.053,-2.344,43.761,12.894,-41.416,-12.112,-9.768,13.675,-1.954,-2.344
-22.662,0.391,1.954,9.768,4.298,-39.853,4.298,20.708,11.331,11.722,-27.741,-16.41,-35.946,-14.847,1.172,29.304,21.49,-33.602,-1.172,-42.979,12.894,-4.298,1.172
-2.344,1.563,-9.377,8.596,15.238,-22.271,-2.344,8.596,13.675,8.596,-17.582,-12.894,-26.569,-35.946,1.954,53.919,17.973,-28.523,10.159,-15.238,-33.211,-11.722,1.954
10.94,7.814,-33.602,4.689,15.629,-8.987,-8.596,-7.033,14.066,12.503,-13.284,-14.457,-13.675,-51.184,-0.391,66.032,19.145,-25.788,34.383,-14.457,-46.886,-18.364,-0.391
26.178,11.722,-53.138,2.344,21.88,1.954,-15.629,-18.364,15.238,17.582,-13.284,-35.165,-12.112,-49.231,-5.47,52.747,22.662,-26.569,53.919,-11.722,-61.734,-19.927,-5.47
-1.172,-7.424,-32.43,16.801,-11.331,8.596,-17.582,-3.126,8.596,20.317,-18.755,-36.337,-16.02,-42.198,-9.377,43.37,25.006,-24.225,33.211,11.722,-65.641,-14.847,-9.377
-28.523,-23.053,-23.053,14.847,-35.556,10.549,-20.708,-12.894,-5.47,24.225,-24.225,-15.238,-15.238,-42.979,-12.894,50.012,32.43,-25.397,23.834,17.973,-37.118,-14.066,-12.894
-27.35,-25.397,1.563,3.126,-39.072,19.145,-8.596,-17.582,-3.907,28.132,-21.099,-9.377,-10.549,-37.9,-14.457,57.045,42.198,-22.271,-0.781,33.211,-44.151,-9.377,-14.457
-45.324,-21.099,24.615,8.987,-52.357,33.602,-10.159,-3.907,13.284,25.006,-21.099,-19.145,-8.205,-25.397,-7.424,41.807,44.542,-21.099,-23.834,18.364,-34.383,-1.954,-7.424
-32.43,-2.735,-1.954,10.94,-38.681,21.88,-5.861,-2.344,17.192,22.271,-26.178,-19.927,-8.987,-19.145,-8.596,31.648,43.761,-23.834,2.735,-7.814,-25.788,1.172,-8.596
18.364,-1.172,-12.894,3.516,4.298,14.066,1.563,-12.894,29.695,25.006,-20.708,-21.099,12.503,-22.271,-7.424,31.258,47.668,-22.662,13.675,0,-37.509,0.391,-7.424
34.383,3.126,-18.755,3.516,22.662,11.331,3.516,-16.02,39.853,23.443,-12.894,-23.053,29.695,-29.695,-7.424,36.337,45.324,-18.364,19.536,5.47,-48.449,-4.298,-7.424
41.416,-14.457,-17.192,9.377,32.039,1.172,-2.344,-11.722,23.834,19.536,-13.675,-11.722,19.536,-28.913,-9.377,37.9,39.072,-18.755,17.973,22.271,-57.045,-0.391,-9.377
35.165,-12.112,-16.02,1.954,26.96,9.377,-8.987,-18.364,8.987,22.662,-11.331,-4.689,7.033,-12.894,-13.284,35.946,44.542,-21.099,16.801,11.331,-43.761,7.424,-13.284
6.252,11.722,-12.112,1.172,8.596,18.755,-8.205,-11.331,9.377,25.397,-12.894,-3.516,6.252,-2.735,-14.457,30.867,53.138,-17.973,12.894,-15.238,-22.662,9.768,-14.457
-16.801,16.02,-8.987,23.443,-19.536,9.768,0.391,23.443,3.907,30.476,-25.788,22.662,3.126,10.159,-12.112,31.648,57.045,-20.317,9.768,-48.449,5.861,18.755,-12.112
-10.159,19.145,-3.907,12.112,-24.225,7.424,13.675,20.317,1.563,35.946,-23.053,8.987,-0.391,28.523,-9.377,6.252,65.25,-21.88,4.689,-59.389,24.225,22.662,-9.377
2.344,29.304,1.954,-11.722,-11.331,21.099,16.41,-3.907,11.331,32.821,-10.549,-10.549,12.503,20.317,-0.781,-7.424,64.078,-9.768,-1.172,-43.37,7.424,14.066,-0.781
10.94,20.708,3.516,4.689,-5.47,26.569,7.424,11.331,9.377,25.006,-1.563,-6.642,10.94,6.252,2.344,7.814,47.277,-6.642,-2.735,-24.615,-21.88,8.987,2.344
13.284,-4.298,7.033,-3.516,-16.41,23.834,5.079,0.391,3.126,17.192,4.689,-5.079,8.596,3.907,-8.205,17.582,39.463,-7.424,-6.252,15.629,-44.542,8.205,-8.205
3.907,-2.344,7.033,-11.722,-20.317,31.258,-5.861,-7.033,-5.861,14.847,7.033,5.861,13.675,-5.47,-19.145,35.165,36.728,-10.94,-6.252,19.927,-42.198,6.642,-19.145
0,-8.987,-1.172,-7.424,-32.039,17.192,-4.298,0.781,-13.284,12.503,6.252,-3.907,3.907,1.563,-23.834,21.49,33.211,-16.41,1.954,15.238,-38.681,8.205,-23.834
-1.954,-18.364,1.563,-12.894,-43.761,5.47,3.907,1.954,-22.662,10.159,3.516,-14.066,-6.252,12.112,-30.867,3.516,29.695,-18.364,-0.781,25.006,-36.337,8.205,-30.867
12.503,-16.41,10.159,-17.973,-23.053,14.066,0,-2.735,-23.053,13.284,10.159,0,9.768,1.954,-28.523,18.755,31.648,-10.549,-9.377,30.085,-31.258,2.344,-28.523
9.377,8.205,-10.94,-13.675,-12.112,12.503,-3.126,-4.298,-20.317,10.549,11.722,11.722,14.847,-2.344,-34.774,37.509,22.662,-5.861,11.722,3.126,-17.973,-2.344,-34.774
0,0.781,-4.298,-2.735,-14.457,3.907,-4.298,8.596,-22.662,10.549,8.987,4.298,3.907,10.159,-34.774,23.443,15.238,-5.47,5.079,8.596,-11.331,2.344,-34.774
-8.987,20.317,-15.629,0.391,-17.973,4.689,-4.298,12.894,-22.662,14.847,8.596,1.954,-0.781,14.066,-23.053,15.238,15.629,-2.735,16.41,-23.443,4.298,5.861,-23.053
-12.112,-7.033,-0.391,-5.47,-26.96,3.516,-1.563,0,-16.801,13.675,14.457,-7.814,8.987,0.391,-23.834,18.755,15.629,-0.391,1.172,19.927,-8.596,-1.563,-23.834
-10.549,-28.132,5.079,-1.172,-30.867,-1.172,-1.954,0.391,-12.894,7.424,13.675,-8.205,15.629,-13.675,-23.834,24.225,8.596,-2.735,-4.298,50.012,-28.523,-3.126,-23.834
-17.192,9.768,-29.695,-2.735,-32.43,-1.954,-8.596,3.516,-16.801,4.298,3.126,2.344,6.252,-14.457,-20.708,24.615,5.079,-5.47,30.476,-5.079,-12.112,-4.298,-20.708
-27.741,-20.317,-13.284,3.907,-50.794,-15.629,-4.298,12.894,-31.648,1.172,-5.47,16.801,-7.424,-10.94,-30.085,30.867,1.954,-8.205,14.066,12.894,-3.516,-1.954,-30.085
-43.761,-5.079,-50.794,24.615,-69.158,-45.714,1.954,37.9,-42.589,0,-26.178,40.635,-17.973,-2.344,-47.277,40.244,-9.768,-16.801,51.575,-28.913,20.317,2.344,-47.277
-63.687,-0.391,-37.118,16.801,-82.051,-37.509,0.391,34.383,-46.496,0.391,-32.821,35.165,-33.993,11.331,-43.37,23.443,-5.861,-16.41,37.9,-43.761,44.542,5.47,-43.37
-62.125,-5.47,-14.847,2.344,-83.614,-29.695,13.284,19.145,-41.807,3.126,-17.582,16.41,-35.556,14.066,-30.085,12.112,0,-10.94,15.629,-21.099,31.648,3.516,-30.085
-27.741,-26.569,7.814,-9.377,-50.403,-8.596,5.079,-0.781,-33.993,-7.033,-3.516,0.781,-23.443,-17.582,-23.443,21.099,-3.126,-3.907,-7.033,33.211,-10.94,-10.94,-23.443
-19.927,10.549,-10.94,-16.41,-27.741,9.768,-5.079,-13.675,-29.695,-9.377,5.47,-17.973,-18.364,-27.741,-12.112,8.205,-2.344,1.172,11.722,3.126,-8.205,-19.145,-12.112
2.735,12.112,-17.973,-16.02,0.391,5.861,-4.689,-19.927,-20.708,-14.457,9.377,-6.642,-9.768,-30.867,-11.331,19.145,-3.126,4.689,18.755,13.284,-15.629,-18.755,-11.331
19.927,-2.735,-22.662,-13.675,15.238,-4.298,-8.205,-22.271,-17.192,-19.145,0.781,7.424,8.596,-39.853,-31.258,35.556,-8.205,3.516,23.443,23.443,-7.424,-18.364,-31.258
8.205,5.861,-32.43,-14.066,10.94,-8.205,-13.675,-20.317,-18.755,-17.192,-4.689,-13.284,1.172,-23.443,-39.072,7.814,-9.377,3.907,33.211,2.344,12.112,-12.503,-39.072
-5.47,14.457,-37.509,-23.443,-2.344,-8.987,-10.159,-29.304,-19.536,-8.987,-3.126,-29.304,-1.954,-10.159,-35.946,-13.284,-5.47,10.549,38.291,-7.814,19.927,-8.987,-35.946
-0.391,-12.894,-7.033,-22.271,-5.47,-2.735,-5.47,-28.523,-27.35,0.391,-1.954,-12.894,6.252,-21.49,-37.509,10.94,1.172,19.145,7.814,28.523,12.503,-16.41,-37.509
-5.861,-14.457,-10.159,-14.457,-17.192,-1.172,-0.781,-24.615,-27.741,10.94,3.907,-3.907,12.503,-22.271,-24.225,17.973,5.861,25.397,10.94,33.211,2.344,-15.629,-24.225
-13.284,5.079,-18.755,-13.675,-23.053,5.47,1.954,-25.006,-26.569,15.629,7.424,-10.549,0,-9.377,-7.424,5.47,8.987,25.788,19.536,6.642,10.549,-13.284,-7.424
1.172,9.377,-24.615,-21.49,-10.549,16.41,-3.516,-38.291,-16.02,10.94,12.503,-13.675,-1.563,-6.252,-7.033,10.549,10.549,26.569,25.397,12.112,-5.079,-9.377,-7.033
1.954,-7.033,-16.41,-10.159,-9.377,10.549,-1.954,-32.039,-20.708,4.298,14.457,-10.94,-9.768,-14.066,-6.642,20.708,5.861,25.397,17.192,26.96,-11.331,-9.768,-6.642
-5.47,-6.642,-16.41,-6.252,-10.94,-5.47,4.689,-24.225,-21.88,-0.781,10.549,-10.94,-20.708,-15.238,-7.033,20.317,0.391,22.271,17.192,17.582,-5.47,-10.159,-7.033
-1.954,-13.675,-7.814,2.344,-9.768,-15.238,8.205,-5.861,-21.49,-3.516,2.344,-1.172,-32.039,-3.516,-1.954,14.066,-0.781,17.973,8.596,4.298,4.298,-1.954,-1.954
-30.476,-26.96,-5.47,28.523,-32.821,-47.668,15.238,30.085,-33.602,-4.298,-16.41,20.708,-49.621,19.927,-10.159,6.252,-4.298,8.596,6.252,-14.457,39.463,8.596,-10.159
-52.357,-15.629,-5.079,22.271,-50.403,-60.562,32.039,27.35,-23.053,-2.344,-16.801,8.987,-38.681,26.96,-9.768,-12.112,-1.172,10.159,5.861,-25.006,54.31,7.033,-9.768
-34.774,8.205,-6.252,0.391,-31.258,-20.708,17.973,0.391,-4.298,0.781,-5.861,-3.907,-15.238,31.258,-15.238,-14.066,7.814,14.457,7.033,-30.476,53.919,3.907,-15.238
-5.861,2.344,-9.377,-5.47,-7.814,-3.907,6.252,-13.675,-2.735,-2.735,3.126,10.549,2.735,8.596,-22.662,18.755,4.689,16.801,10.159,2.735,13.284,-4.689,-22.662
19.536,7.033,-1.172,-13.675,9.377,7.814,8.987,-14.066,-5.861,2.344,10.94,5.47,15.238,-13.284,-14.066,26.178,8.987,23.834,1.954,20.317,-21.88,-19.927,-14.066
37.118,15.629,-1.954,-10.549,18.364,20.708,5.47,-5.079,-10.549,6.642,13.675,3.907,14.066,-13.675,-4.298,18.755,12.503,26.178,2.735,19.927,-37.9,-24.225,-4.298
49.231,14.847,-4.298,-2.344,33.993,12.112,6.252,3.907,-13.675,3.516,7.033,28.132,10.94,-12.894,-5.861,34.383,12.112,23.053,5.079,24.225,-45.714,-21.49,-5.861
41.416,14.847,0.391,-0.391,28.132,8.987,12.112,6.642,-8.596,3.907,3.907,38.291,21.88,-15.238,-4.689,37.118,14.066,22.271,0.391,26.569,-35.556,-24.225,-4.689
26.178,32.039,-3.907,1.954,14.066,21.099,12.503,6.642,1.172,3.516,5.861,17.192,13.284,2.344,0.391,11.331,13.675,21.49,4.689,3.516,-26.569,-13.675,0.391
23.834,27.741,-3.516,4.689,10.549,25.006,8.205,7.424,12.112,1.172,4.689,8.596,8.205,18.364,-3.516,3.126,10.549,21.099,4.298,1.172,-28.523,-5.861,-3.516
12.112,29.695,-8.987,12.503,-4.298,23.443,11.722,13.675,7.424,5.47,3.516,27.35,16.801,5.079,-5.079,27.741,10.549,23.834,9.768,-2.735,-33.211,-8.987,-5.079
-12.503,24.615,-2.735,6.642,-34.383,26.569,16.41,7.033,6.642,10.159,7.424,23.053,18.364,5.079,-3.126,28.523,10.549,25.397,3.516,3.126,-44.151,-8.205,-3.126
14.066,33.993,-9.377,-0.781,4.689,24.225,10.549,-2.735,8.205,8.205,9.768,11.722,10.159,14.066,-7.033,21.88,6.252,24.225,10.159,-3.907,-46.496,-7.033,-7.033
37.9,30.867,-10.94,-0.781,37.118,17.973,3.126,-2.344,-2.344,-1.954,8.987,17.973,-2.344,1.954,-2.344,25.397,0.391,24.225,11.722,-6.252,-44.151,-14.457,-2.344
41.807,16.02,-10.159,5.079,42.198,7.424,0.781,1.172,4.298,-10.159,4.689,21.88,0.391,-1.563,-1.563,23.834,-5.861,23.834,10.94,4.689,-45.714,-14.847,-1.563
53.919,11.722,-12.503,14.066,59.389,-5.079,0.781,10.549,5.861,-9.768,-2.344,24.225,-2.735,10.159,-2.735,13.284,-9.768,20.317,13.284,-7.814,-25.006,-7.424,-2.735
37.118,2.344,-8.205,33.993,43.37,-26.96,0.781,48.059,-23.834,-9.768,-23.053,47.668,-30.867,17.192,3.126,0.781,-11.331,11.722,8.987,-37.9,8.596,4.298,3.126
-12.112,2.735,-8.596,32.039,-10.159,-26.569,7.814,42.589,-41.416,0.391,-28.132,53.529,-36.337,21.88,5.079,-5.079,-4.298,11.722,9.377,-37.509,19.145,8.205,5.079
-19.536,10.549,-3.126,9.768,-12.894,-12.503,12.503,10.549,-19.145,7.814,-12.894,13.675,-11.722,28.523,-1.563,-25.006,3.516,13.675,3.907,-31.648,25.788,5.47,-1.563
0.781,14.457,-6.252,2.735,13.675,5.079,-1.563,-5.47,-0.391,-0.391,-1.954,15.238,11.722,7.033,-2.344,-3.126,-1.954,17.582,7.033,-10.549,0.391,-2.735,-2.344
-7.033,8.596,-12.894,-3.126,0.391,14.066,-8.205,-20.708,21.099,-16.41,2.735,19.145,30.085,-12.894,-7.814,18.364,-9.377,19.927,13.675,8.596,-11.722,-14.066,-7.814
8.205,3.516,-17.192,-14.847,16.801,9.768,-12.894,-34.383,40.244,-27.35,2.344,-7.424,35.165,-12.112,-21.099,5.861,-19.145,18.364,17.973,15.629,-18.364,-14.457,-21.099
0.781,0.391,-20.317,-6.252,0.781,10.549,-16.801,-21.099,19.145,-32.43,-0.781,-14.457,4.689,-10.159,-14.457,-8.987,-24.225,14.847,21.099,7.424,-19.145,-8.596,-14.457
-3.516,-3.516,-20.317,6.642,-0.391,3.126,-14.066,-10.159,14.457,-25.397,-3.907,10.159,6.252,-10.549,-6.642,6.252,-20.708,15.238,21.099,4.298,-10.159,-4.689,-6.642
6.252,-8.205,-15.629,3.516,21.099,1.172,-14.066,-23.053,36.728,-19.145,-3.126,10.94,30.085,-3.516,-13.284,11.331,-15.629,15.629,16.41,10.549,0,1.172,-13.284
37.9,-7.424,-17.192,6.642,73.455,-7.033,-23.443,-23.443,46.886,-15.238,-5.079,-12.503,31.258,5.47,-13.284,-9.768,-16.41,9.377,17.973,4.689,6.252,3.126,-13.284
49.231,-8.205,-19.927,10.159,105.885,-23.443,-29.695,-20.317,55.873,-17.582,-10.94,-16.02,34.383,5.861,-15.238,-14.066,-20.708,4.689,20.708,-2.344,23.053,-0.391,-15.238
51.575,-9.377,-19.145,3.907,114.481,-27.35,-26.178,-32.821,65.25,-14.066,-10.94,-21.88,45.714,-0.391,-21.88,-4.689,-17.582,2.735,19.927,10.549,18.364,-6.252,-21.88
35.165,-11.722,-18.755,-7.424,94.164,-22.271,-26.178,-47.668,59.389,-13.284,-4.689,-37.509,44.542,-16.41,-17.582,-7.033,-17.192,1.563,19.536,24.225,3.907,-14.066,-17.582
16.801,-7.814,-12.503,2.344,64.86,-14.457,-26.96,-24.225,60.562,-11.722,-5.861,-19.927,46.105,-20.708,-3.907,1.563,-16.41,1.563,13.284,20.708,0.781,-16.801,-3.907
21.49,-8.205,-12.894,7.424,60.562,-14.847,-21.88,-16.02,73.065,-12.503,-8.987,-6.252,58.608,-13.675,-1.563,0.391,-15.629,4.689,13.675,16.41,10.94,-10.159,-1.563
2.735,-11.331,-10.94,5.47,28.132,-15.629,-16.41,-10.159,56.654,-14.457,-16.801,-9.377,50.403,-10.549,-14.847,-9.377,-16.02,8.205,11.722,14.457,37.118,-14.457,-14.847
-15.238,-22.662,-13.284,27.35,-4.689,-30.476,-15.629,26.178,2.735,-20.317,-34.774,16.02,7.424,-8.205,-21.49,-14.457,-19.145,4.689,14.066,0,74.628,-13.675,-21.49
-30.476,-17.582,0.391,22.271,-33.993,-23.834,4.298,28.132,-3.516,-4.298,-28.132,10.159,-1.172,22.662,-12.894,-34.774,-1.954,9.768,0.391,-18.364,87.912,7.814,-12.894
-55.873,-1.954,1.563,4.689,-78.535,16.41,7.814,1.563,-27.741,14.847,-8.596,-14.847,-15.629,32.821,-7.033,-46.886,21.099,20.708,-0.781,-7.814,57.827,16.02,-7.033
-40.244,5.079,-8.205,4.298,-59.78,27.35,-1.172,-5.079,-16.801,23.443,7.033,-12.112,-6.642,34.383,9.768,-35.946,28.523,21.099,8.987,8.987,6.252,18.755,9.768
15.629,9.768,-1.172,0.391,11.331,25.397,-1.954,-9.768,33.993,32.821,19.927,-2.344,32.821,47.277,21.099,-16.801,33.211,21.49,1.954,14.066,-27.35,29.695,21.099
67.595,12.503,-6.642,4.298,72.674,26.569,-7.424,-13.675,101.587,33.602,27.741,15.238,89.084,56.264,32.43,0.781,32.821,19.145,7.424,24.615,-48.84,31.258,32.43
125.031,7.033,0,13.284,145.348,6.642,-10.549,3.516,103.541,29.304,27.741,15.238,66.422,78.535,37.118,-5.861,25.397,12.112,0.781,25.006,-60.562,35.946,37.118
188.718,9.377,3.907,21.099,207.082,2.344,-6.252,21.099,151.209,20.317,30.867,8.205,77.753,110.965,45.324,-22.662,24.225,11.331,-3.126,8.987,-66.032,46.886,45.324
196.532,11.722,5.861,16.801,179.731,39.853,0.781,10.549,166.447,32.821,41.807,22.662,97.289,124.249,49.231,-6.252,39.072,19.927,-5.079,14.066,-87.131,57.045,49.231
162.149,12.112,4.298,15.238,121.123,61.734,3.516,7.033,170.745,39.463,50.794,31.648,109.792,137.534,39.463,6.252,50.403,28.132,-3.516,26.569,-104.322,62.515,39.463
185.201,12.112,-12.894,9.377,129.328,59.78,1.563,2.344,171.136,42.589,50.403,17.582,94.554,160.195,37.9,-9.377,54.701,30.476,13.675,13.675,-108.23,59.389,37.9
180.513,7.814,-10.159,0.781,101.197,74.237,7.814,-5.079,210.598,48.84,55.482,17.582,140.269,186.374,19.145,-12.112,60.952,40.635,10.94,11.331,-105.495,78.535,19.145
269.206,11.722,-3.126,6.642,209.035,60.562,16.41,-2.735,250.842,65.641,68.767,28.523,189.89,174.261,47.277,3.126,64.86,54.31,3.907,32.43,-125.812,58.217,47.277
353.602,21.88,-10.159,8.205,315.311,40.244,19.145,-1.954,260.22,70.72,71.111,28.913,205.519,178.168,38.681,9.377,57.045,56.264,10.94,24.615,-124.64,60.952,38.681
373.529,23.443,-1.563,18.755,345.788,33.602,18.755,15.629,299.683,63.297,59.78,49.621,237.167,164.493,48.449,22.271,51.966,53.919,2.344,3.907,-107.839,58.999,48.449
326.642,38.681,6.642,20.317,298.901,39.463,25.397,27.741,358.681,57.436,44.542,53.529,270.379,162.149,70.72,12.503,52.357,47.277,-5.861,-9.377,-100.415,56.654,70.72
254.75,42.589,-4.298,34.383,223.101,28.132,23.834,50.794,319.609,57.045,17.973,53.919,234.042,166.838,41.416,7.424,48.059,30.085,5.079,-32.821,-55.092,52.357,41.416
244.2,35.946,-12.112,23.443,195.36,29.304,21.099,44.933,255.531,54.31,4.298,46.496,183.248,166.838,35.556,-24.225,46.496,21.49,12.894,-37.9,-32.039,49.621,35.556
236.777,38.291,7.033,-1.954,178.168,43.37,28.913,27.741,245.763,63.297,14.457,18.364,189.89,170.745,23.053,-41.416,47.277,21.49,-6.252,-21.88,-36.728,48.84,23.053
234.042,45.324,5.861,-15.629,163.712,64.469,26.178,13.284,171.526,85.958,35.556,12.112,177.387,133.236,30.867,-36.337,45.324,31.648,-5.079,0,-81.27,43.37,30.867
322.735,44.151,-12.112,-1.954,277.802,47.277,14.457,11.331,164.103,86.349,39.463,6.252,184.811,119.17,27.741,-35.165,40.244,34.774,12.894,6.642,-98.852,39.853,27.741
352.039,54.701,-27.35,-0.781,337.973,25.788,8.205,4.298,320.781,55.482,34.774,12.112,295.775,118.388,30.476,-20.317,28.913,32.43,28.132,-4.298,-116.044,51.575,30.476
380.171,44.933,-10.549,-13.284,380.171,20.708,2.735,-3.126,392.674,34.383,24.615,25.788,330.159,136.361,13.284,-0.781,19.927,25.788,11.331,8.987,-115.653,62.906,13.284
371.575,40.244,0.391,-8.205,365.324,15.238,4.298,16.801,290.696,33.993,19.536,12.503,232.088,124.64,20.708,-19.536,20.317,21.099,0.391,1.954,-89.084,38.291,20.708
363.37,30.476,18.755,-7.424,343.053,28.913,2.344,29.695,262.173,32.039,21.099,0.391,171.917,148.083,37.509,-41.026,21.88,21.099,-17.973,-3.907,-89.866,50.012,37.509
313.748,0.391,73.455,-32.821,284.444,35.165,7.814,24.615,216.459,53.529,26.178,20.708,168.01,138.706,28.523,-17.582,28.523,24.615,-72.674,35.556,-97.289,58.608,28.523
264.908,20.317,13.675,-13.284,232.088,27.741,0.781,22.662,184.029,65.25,24.615,30.867,169.573,103.932,43.761,-10.94,37.9,25.006,-12.894,17.192,-98.462,32.821,43.761
281.319,51.184,-69.158,-16.41,274.286,5.079,-18.364,-15.238,311.404,50.012,13.675,4.298,247.326,135.58,40.244,-42.589,32.43,13.284,69.939,-16.801,-119.951,57.436,40.244
304.371,49.621,-73.846,-39.853,329.768,-16.02,-26.178,-48.059,437.998,17.582,8.596,-8.596,346.178,154.725,4.298,-48.84,23.834,7.033,74.628,-11.722,-93.382,62.125,4.298
294.603,64.078,-90.256,-44.933,314.139,-18.364,-18.364,-53.529,380.171,23.834,7.814,-13.675,311.404,128.156,8.205,-49.621,17.582,0.391,91.038,-12.894,-92.21,35.946,8.205
282.1,42.589,-51.184,-33.602,272.723,5.47,-13.675,-25.397,316.484,38.681,2.344,-0.391,273.895,119.56,3.126,-39.463,17.973,-3.516,51.966,-17.192,-79.316,51.966,3.126
303.59,35.946,8.205,-28.913,299.292,-0.781,1.172,19.536,292.259,35.165,-6.642,21.49,239.902,129.328,7.814,-35.165,17.582,-7.033,-7.424,-29.304,-59.78,72.674,7.814
215.678,41.026,3.126,-3.126,190.281,-12.894,16.801,61.343,146.911,63.687,-21.88,50.794,122.686,144.957,21.49,-49.231,21.88,-10.94,-2.344,-74.628,-19.145,87.131,21.49
197.705,14.066,24.225,-7.033,171.917,-13.675,10.159,60.562,185.983,48.059,-31.648,46.886,147.302,153.944,3.126,-54.701,25.006,-12.112,-23.443,-58.217,-17.582,107.839,3.126
232.088,38.681,-42.198,-24.225,234.823,-34.774,2.735,0.391,239.121,12.894,-23.834,1.563,171.526,178.168,-34.774,-83.614,14.066,-16.02,42.979,-62.515,-9.377,116.825,-34.774
207.082,33.211,-3.126,-39.072,232.479,-24.225,-3.907,-5.47,182.857,16.801,-10.159,12.503,148.864,111.355,-15.238,-42.589,2.344,-12.894,3.907,-32.039,-32.43,73.846,-15.238
234.042,47.277,-9.377,-19.145,264.908,-11.331,-8.596,7.424,246.545,10.159,-3.126,7.033,202.002,95.726,-14.847,-21.88,-2.344,-8.596,10.159,-34.774,-62.906,75.409,-14.847
216.85,55.092,-3.907,-26.96,256.703,-10.159,-6.642,1.563,275.458,-23.053,-4.298,-10.549,202.784,100.024,-31.648,-33.993,-7.814,-10.159,4.689,-37.118,-57.436,87.131,-31.648
214.896,64.078,4.689,1.563,243.81,-8.987,2.735,47.668,259.048,-21.49,0,30.867,198.486,63.687,12.894,-8.205,-5.861,-5.861,-3.907,-65.641,-70.72,87.521,12.894
189.499,53.138,-7.033,10.549,185.201,-1.954,1.172,61.343,242.247,-31.648,-5.861,49.621,193.407,64.469,-7.033,2.735,-8.987,-8.596,7.814,-57.827,-67.985,94.554,-7.033
156.679,39.072,-7.814,-12.112,140.269,-2.344,-0.391,38.291,175.043,-45.324,-3.516,12.503,150.427,78.144,-51.184,-38.291,-15.629,-15.238,8.596,-45.714,-55.873,123.468,-51.184
53.138,24.615,0.781,10.94,8.205,23.053,-2.735,61.734,47.277,-8.596,2.344,20.708,70.33,4.689,25.006,-37.9,-11.722,-12.503,0,-47.277,-41.026,57.045,25.006
26.178,15.629,42.979,-19.145,-17.973,32.039,-8.596,60.562,16.801,7.814,-7.033,31.258,53.529,1.954,5.861,-11.331,-10.549,-12.112,-42.198,-38.681,-37.509,55.873,5.861
46.496,41.026,31.258,4.689,53.529,11.331,-3.907,62.515,92.991,2.344,-3.516,24.225,92.21,26.96,18.755,-21.49,-8.596,-8.987,-30.476,-36.728,-39.853,66.422,18.755
84.786,43.761,46.496,7.814,132.454,-7.814,-10.549,69.939,89.475,-0.781,0,18.755,66.032,35.556,29.304,-24.615,-18.364,-11.331,-45.714,-37.9,-43.761,74.237,29.304
102.759,51.575,4.298,1.954,155.507,-26.178,-23.834,55.873,90.256,-12.112,-14.066,11.722,60.562,37.509,1.563,-24.225,-33.211,-21.099,-3.516,-40.635,-71.893,87.521,1.563
97.68,46.105,-32.039,1.172,135.189,-34.774,-24.225,37.509,80.488,-37.9,-29.695,-10.549,42.979,28.132,-28.523,-41.026,-45.324,-30.867,32.821,-31.258,-57.827,75.409,-28.523
13.284,29.695,-43.37,4.298,14.066,-17.973,-20.708,29.695,62.515,-32.039,-33.993,-12.894,49.231,10.94,-13.675,-63.297,-48.059,-31.648,44.151,-44.933,-39.072,85.958,-13.675
-75.8,6.252,-40.244,-3.516,-125.421,-13.675,-17.973,43.37,49.231,-27.35,-55.092,6.642,67.204,10.94,-25.397,-78.926,-48.449,-35.556,41.026,-69.939,-9.768,109.011,-25.397
-98.071,10.549,-36.728,-5.47,-166.838,6.642,-7.424,37.509,98.071,-55.873,-52.357,-2.344,88.694,28.132,-30.476,-99.243,-40.635,-28.523,37.509,-80.098,8.205,126.593,-30.476
-57.045,-2.344,23.053,-4.689,-66.032,-18.364,3.126,38.291,148.864,-61.343,-22.662,-21.099,117.607,51.966,-13.284,-112.918,-41.807,-10.549,-22.271,-43.37,-12.112,157.07,-13.284
-12.503,22.662,-10.159,7.033,10.159,-36.728,-9.768,42.198,77.753,-51.184,-7.814,-2.735,69.548,39.853,-14.066,-79.316,-57.045,-6.252,10.94,-61.734,-36.728,155.507,-14.066
20.317,17.582,0.781,-12.894,74.237,-45.714,-19.536,17.192,5.079,-55.873,-12.894,-21.88,-4.298,-5.47,-12.112,-62.906,-60.952,-8.596,0,-23.834,-44.542,99.243,-12.112
16.02,25.788,-21.099,-5.47,66.813,-50.012,-17.192,14.847,-137.534,-21.099,-8.987,-42.589,-112.527,-25.006,6.252,-79.707,-57.827,-5.079,21.88,-44.151,-33.602,78.144,6.252
-36.337,14.066,-35.946,-10.94,-51.575,-3.516,-23.053,8.987,-136.361,-15.629,-17.582,-53.138,-98.852,0.391,-29.695,-95.336,-60.171,-5.079,36.728,-48.059,-20.317,94.945,-29.695
-121.123,-7.814,-28.132,-31.648,-178.95,17.973,-24.225,-3.907,-122.686,-37.118,-31.258,-53.919,-106.276,-23.053,-31.258,-84.005,-50.403,-5.47,28.913,-36.337,-33.211,81.661,-31.258
-149.255,5.47,-19.927,-7.424,-194.969,26.569,-17.192,13.284,0,-56.264,-18.755,-39.072,-13.675,-17.582,0.391,-84.396,-56.654,2.735,20.708,-36.337,-38.291,93.382,0.391
-93.382,1.954,-15.238,1.954,-105.885,-7.814,-15.238,24.225,125.031,-87.131,-14.066,-36.337,70.33,30.085,-23.834,-89.475,-81.27,3.907,16.02,-41.416,-45.714,143.785,-23.834
-33.993,32.039,-6.642,-5.079,10.159,-54.701,-15.629,45.324,177.387,-106.276,-13.675,-30.476,96.508,23.053,-12.503,-79.707,-90.647,1.954,7.424,-72.674,-67.985,144.567,-12.503
5.861,37.9,6.642,-6.642,87.912,-75.8,-8.987,40.635,42.198,-75.8,-3.516,-34.774,16.02,1.172,-8.205,-80.098,-95.336,2.735,-5.861,-60.562,-61.343,132.845,-8.205
25.788,41.026,10.159,-18.755,95.336,-69.158,0,32.039,-113.7,-30.085,5.47,-46.496,-65.25,-44.151,-8.205,-66.032,-91.819,8.596,-9.377,-49.621,-81.27,106.276,-8.205
-81.27,26.178,20.317,-28.913,-58.217,-24.225,-7.424,26.569,-153.162,-23.834,-2.344,-50.794,-120.733,-84.005,48.84,-75.018,-81.27,5.47,-19.536,-44.933,-86.74,61.343,48.84
-157.851,57.827,-38.291,-10.549,-189.89,37.509,-12.112,13.675,-228.571,10.94,-1.172,-42.198,-175.433,-56.654,55.092,-83.614,-67.595,6.252,39.072,-71.502,-84.786,75.8,55.092
-128.938,48.84,-9.768,0.391,-146.52,16.41,3.126,35.556,-121.514,-12.503,-1.563,-36.337,-102.759,-19.927,37.9,-87.912,-60.952,12.112,10.549,-76.19,-52.747,92.991,37.9
-56.264,34.383,-21.099,20.708,-17.973,-43.37,-14.847,53.919,130.891,-89.475,-23.834,-22.662,53.919,11.331,23.834,-94.945,-73.846,-0.781,21.88,-95.726,-19.536,107.839,23.834
-11.722,28.913,1.563,-6.642,44.151,-66.813,-3.126,36.728,118.388,-96.117,-19.927,-40.244,32.43,103.541,-54.701,-119.17,-68.767,-7.424,-0.781,-109.011,10.159,184.42,-54.701
-19.927,25.006,13.284,-39.072,32.039,-72.283,2.735,16.02,-8.596,-57.827,-5.47,-75.409,-32.821,54.31,-35.165,-134.799,-59.78,-0.781,-12.503,-98.462,-10.549,148.083,-35.165
-41.026,32.039,-33.993,-47.668,-7.424,-50.794,-19.536,-12.112,-83.223,-52.747,-3.126,-95.726,-75.018,-33.602,0.781,-127.766,-76.972,-5.079,34.774,-73.065,-56.264,71.111,0.781
-154.725,11.722,-6.642,-76.972,-171.917,6.252,-19.927,-41.416,-53.919,-51.184,-0.781,-96.117,-50.012,-44.933,18.755,-127.375,-80.098,-3.126,7.424,-28.523,-90.256,69.158,18.755
-157.851,38.681,-42.198,-61.734,-217.241,46.105,-21.099,-31.258,-109.402,-38.681,8.205,-68.376,-84.786,-58.999,41.026,-105.104,-82.833,8.596,42.979,-47.277,-102.369,54.701,41.026
-146.52,56.654,-48.059,-58.999,-143.004,1.954,-23.443,-32.43,-151.99,-40.244,4.298,-76.19,-120.342,-55.482,23.053,-111.355,-85.958,6.252,48.84,-46.886,-85.177,47.277,23.053
-119.17,2.344,44.151,-71.111,-113.309,10.94,-14.457,-26.96,-101.587,-66.032,-0.391,-89.084,-114.872,0.391,-10.159,-133.236,-78.144,4.298,-43.37,6.642,-58.608,83.614,-10.159
-99.634,49.621,-17.582,-66.032,-101.587,-7.814,1.172,-25.788,-176.606,-45.324,10.94,-65.641,-144.567,13.675,-30.085,-115.263,-66.032,10.159,18.364,-55.092,-63.297,121.905,-30.085
-1.563,60.171,-41.416,-75.8,-12.894,-25.788,10.159,-29.695,-60.171,-65.25,3.126,-60.952,-48.059,-21.88,-19.536,-92.991,-70.33,10.94,42.198,-79.316,-60.952,80.098,-19.536
20.317,41.807,-1.954,-75.409,55.482,-35.946,-9.377,-24.225,55.482,-96.899,-1.954,-80.098,33.993,-21.099,-4.298,-132.063,-87.521,3.126,2.735,-57.827,-69.939,100.806,-4.298
-23.053,35.556,0.391,-82.051,-28.913,-1.563,-12.112,-24.615,71.502,-100.806,-0.391,-73.846,26.178,-7.424,11.722,-134.017,-85.568,7.814,0.391,-80.879,-66.032,109.011,11.722
-46.886,44.151,-22.662,-60.562,-66.032,16.801,-7.814,-29.304,25.006,-79.316,4.298,-62.125,-12.894,-7.424,22.662,-113.7,-82.442,14.847,23.443,-61.734,-73.065,78.926,22.662
-125.812,42.198,16.801,-54.31,-170.745,64.078,-3.516,-10.549,-94.945,-56.654,0,-58.217,-101.587,-3.907,-7.033,-97.68,-73.455,11.722,-16.02,-38.291,-70.72,87.521,-7.033
-176.996,30.867,41.416,-46.496,-226.618,43.37,15.629,15.629,-166.838,-24.615,-2.735,-33.993,-148.474,51.184,-38.291,-92.991,-61.343,8.987,-40.635,-45.714,-47.277,128.938,-38.291
-141.05,57.045,-7.814,-25.397,-203.565,26.569,27.741,29.304,-86.74,-40.244,-12.503,-19.927,-94.945,33.211,-18.755,-78.926,-50.403,6.252,8.596,-73.455,-57.045,107.448,-18.755
-58.999,66.422,20.317,-12.112,-26.96,-30.085,14.847,57.436,-31.648,-51.575,-33.993,-2.735,-65.25,29.695,-2.735,-82.833,-51.575,-2.735,-19.536,-89.475,-26.178,104.713,-2.735
-74.628,44.542,80.098,-42.198,-5.079,-30.476,1.954,40.244,18.364,-73.065,-31.258,-35.556,-39.072,66.422,-30.085,-118.388,-50.403,-14.066,-79.316,-62.515,14.457,122.686,-30.085
-23.834,20.708,-2.735,-39.072,-43.761,-3.126,-3.516,3.907,9.768,-83.223,-17.582,-51.575,-34.383,13.284,-5.079,-117.216,-47.277,-8.987,3.516,-48.449,-26.96,69.158,-5.079
-61.734,-7.033,42.589,-49.621,-120.342,32.821,-0.781,10.94,-73.846,-58.217,-8.987,-53.138,-60.562,-30.867,-4.298,-98.852,-58.999,-5.47,-41.807,-5.079,-28.523,28.913,-4.298
-121.123,44.542,18.755,-59.389,-177.778,46.886,4.689,7.424,-94.945,-41.026,0.781,-73.455,-52.357,-17.192,-24.225,-114.872,-60.952,-4.298,-17.973,-34.383,-29.304,50.403,-24.225
-137.924,76.581,18.755,-46.496,-148.864,27.35,12.112,18.755,-158.632,-17.192,9.768,-45.714,-86.349,-28.913,-8.205,-87.521,-51.966,1.563,-17.973,-46.496,-35.556,57.827,-8.205
-140.659,141.441,16.02,-41.026,-98.462,55.092,-5.47,23.834,-119.951,-20.708,0,-24.225,-79.707,-37.118,7.814,-56.654,-33.211,-0.781,-15.238,-83.614,-6.642,36.337,7.814
-68.767,90.256,66.032,-54.701,-31.648,65.25,-15.238,13.284,3.516,-65.25,-5.47,-56.654,-29.695,5.861,-14.847,-85.568,-16.41,-8.987,-65.25,-55.873,22.662,56.654,-14.847
-32.039,39.072,25.397,-50.794,-107.448,100.415,-14.847,3.126,-70.33,-70.72,-4.298,-75.409,-77.753,-7.033,-36.337,-100.024,-7.814,-12.112,-24.615,-38.681,16.02,53.529,-36.337
80.879,-39.072,43.37,-46.496,-134.799,145.739,8.596,16.02,-67.595,-72.674,-7.033,-51.184,-30.867,-60.171,-46.105,-61.734,-1.954,-6.642,-42.589,26.569,5.47,8.596,-46.105
26.569,-96.899,29.304,-41.807,-309.451,168.4,37.509,19.145,-26.569,-59.389,-4.298,-48.449,66.032,-84.396,-50.012,-70.33,-10.549,-6.252,-28.523,54.31,4.689,5.861,-50.012
-152.772,-2.735,66.032,-44.151,-313.748,89.084,52.747,36.337,-125.031,-22.662,1.172,-49.231,25.788,-100.415,-36.728,-83.614,-12.894,-7.814,-65.25,52.747,23.053,5.47,-36.728
10.549,96.508,-10.94,-27.741,3.516,-9.377,36.337,36.728,16.801,-56.654,-6.252,-40.635,78.535,-86.74,-20.317,-57.436,-28.913,-14.066,11.722,-28.523,14.457,-6.252,-20.317
78.535,98.462,-17.973,-33.993,123.468,-12.112,-0.781,13.284,183.639,-98.462,-13.284,-48.059,170.354,-51.966,-43.761,-51.184,-42.589,-26.178,18.755,-68.376,55.482,6.252,-43.761
96.117,73.455,22.662,-32.43,184.42,-33.211,-13.675,21.88,81.27,-88.694,-12.112,-33.211,85.177,-46.496,-44.542,-46.496,-39.853,-29.695,-21.88,-45.714,67.985,14.457,-44.542
133.236,5.079,26.178,-26.96,149.646,-7.033,-34.383,28.523,-68.376,-62.125,-13.284,-11.722,-33.602,-39.853,-38.681,-42.979,-29.695,-31.258,-25.397,-51.184,87.131,11.722,-38.681
0.391,24.225,-14.847,-7.033,-78.926,65.641,-39.072,53.529,-88.303,-46.105,-23.834,14.847,12.894,-57.045,-46.105,-52.747,-20.708,-33.211,15.629,-99.634,130.11,16.41,-46.105
-141.441,-32.039,19.145,-26.178,-302.027,79.316,-5.861,46.496,-218.413,1.954,-15.629,2.344,-32.821,-85.568,-38.681,-71.111,2.344,-25.006,-18.364,-46.886,130.891,-1.563,-38.681
-92.991,30.476,-44.933,-33.993,-294.212,100.024,14.847,35.165,-140.269,-10.549,3.126,-18.755,-10.94,-71.502,-0.781,-81.661,20.708,-14.847,45.714,-55.482,56.264,-16.02,-0.781
190.281,-182.466,-12.503,-19.145,-273.504,156.288,50.794,39.072,-28.523,-68.767,5.47,-7.424,39.853,-72.283,-27.35,-39.072,10.94,-9.377,13.284,87.912,-33.602,-17.582,-27.35
217.631,-191.062,10.549,-35.556,-347.741,230.525,87.521,28.523,-90.256,-68.767,13.284,-19.927,-42.979,-51.575,-34.383,-34.774,14.847,-2.344,-9.768,168.01,-94.164,-23.053,-34.383
325.079,-238.339,51.966,-38.291,-144.567,162.149,53.138,27.741,-10.159,-74.237,18.364,-21.49,-10.94,-24.225,-21.88,-29.695,9.768,-3.907,-51.184,154.725,-85.958,-17.582,-21.88
227.79,-108.62,29.304,-25.788,-50.403,98.071,42.979,30.085,61.343,-94.945,12.894,5.079,62.906,-48.449,-23.053,-5.47,-9.768,-10.159,-28.523,100.806,-53.919,-9.377,-23.053
68.376,69.939,-37.118,-33.602,35.165,34.774,-10.549,7.424,91.429,-77.363,11.722,13.675,117.607,-66.032,-16.41,5.47,-17.582,-17.582,37.9,-41.026,15.238,-16.02,-16.41
197.314,27.35,-117.216,-44.151,74.237,19.145,-23.053,-8.596,100.415,-63.297,18.364,-19.145,137.534,-38.681,-39.072,-21.49,-11.331,-19.927,117.998,-121.514,29.304,-12.503,-39.072
206.3,-93.382,-56.264,-33.211,-76.19,107.448,-13.284,3.907,-47.277,-35.556,24.225,-18.755,28.523,-53.138,-16.41,-35.165,-1.172,-15.238,57.045,-34.774,5.079,-24.225,-16.41
162.93,-140.659,-12.112,-12.503,-168.01,159.805,-12.112,16.41,-148.864,-24.225,20.708,2.344,-39.072,-77.363,-17.582,-13.675,14.847,-11.331,12.894,89.475,-62.906,-24.225,-17.582
387.595,-285.617,25.006,-27.741,-100.415,162.54,25.006,10.159,-79.707,-40.635,17.582,-8.205,-30.867,-45.714,-25.006,-9.768,15.238,-9.768,-24.225,224.664,-157.851,-34.383,-25.006
291.087,-226.227,22.662,-41.416,-144.176,108.62,72.283,7.424,57.436,-92.21,11.722,-14.066,14.066,-39.463,8.205,-19.536,-1.954,-9.377,-21.88,209.817,-166.838,-47.668,8.205
57.436,-37.9,-8.205,-19.927,-45.714,-44.542,68.767,11.331,103.932,-104.713,3.126,-3.516,67.204,-75.409,15.629,-9.377,-25.397,-15.629,8.987,146.52,-110.574,-60.952,15.629
