'FP1-F7','F7-T7','T7-P7','P7-O1','FP1-F3','F3-C3','C3-P3','P3-O1','FP2-F4','F4-C4','C4-P4','P4-O2','FP2-F8','F8-T8','T8-P8','P8-O2','FZ-CZ','CZ-PZ','P7-T7','T7-FT9','FT9-FT10','FT10-T8','T8-P8'
16.41,-44.933,-10.549,-0.391,-22.271,3.907,-27.35,5.47,-46.105,-17.192,0.391,-18.364,-16.801,-39.072,-7.424,-17.973,-10.549,-19.145,11.331,32.039,2.344,-48.449,-7.424
52.747,-45.714,-9.377,5.079,15.629,2.344,-25.006,8.205,-39.072,-13.675,-1.172,-14.457,-15.629,-37.118,-3.126,-13.284,-5.861,-22.662,10.159,26.178,6.252,-41.807,-3.126
51.966,-47.668,-13.284,0.391,13.675,1.172,-23.443,-0.391,-29.695,-9.377,-0.391,-34.774,-14.457,-34.383,0.391,-26.96,-2.735,-27.741,14.066,32.821,-8.987,-35.556,0.391
62.515,-47.277,-17.973,2.344,21.88,3.907,-26.178,-0.781,-35.556,-7.424,-1.954,-44.933,-29.695,-29.695,1.954,-34.774,-1.954,-29.695,18.755,34.383,-16.801,-30.867,1.954
60.171,-48.84,-12.503,1.954,17.582,4.298,-23.834,1.563,-33.602,-4.689,-4.689,-28.523,-21.49,-33.602,2.344,-21.099,0,-30.476,13.284,33.211,-13.284,-28.913,2.344
19.145,-51.184,-12.503,-0.781,-20.708,-1.563,-18.755,-5.079,-47.277,-5.079,-5.861,-26.178,-27.741,-44.933,-1.172,-12.503,-0.391,-32.039,13.284,46.105,-19.927,-33.211,-1.172
5.079,-46.105,-9.377,-5.861,-30.867,0.391,-19.536,-7.424,-50.403,-4.298,-2.344,-43.37,-37.9,-33.993,-1.954,-28.132,-4.689,-37.118,10.159,39.853,-12.503,-33.211,-1.954
24.615,-42.589,1.563,-0.391,-1.172,-0.391,-19.536,4.298,-45.714,-9.768,-5.079,-41.026,-42.589,-25.006,-5.47,-30.867,-11.722,-39.072,-0.781,25.006,10.549,-32.821,-5.47
35.556,-44.151,5.861,4.689,16.02,-7.424,-12.112,6.642,-64.469,-8.205,-9.768,-27.741,-51.184,-29.695,-12.112,-17.973,-12.894,-33.211,-5.079,28.913,24.615,-36.728,-12.112
0.781,-51.966,7.424,7.033,-15.629,-17.582,-6.252,4.689,-48.84,-3.126,-10.94,-29.695,-35.165,-20.708,-14.066,-22.662,-14.457,-28.132,-6.642,30.476,33.993,-35.556,-14.066
-10.549,-55.873,10.159,19.927,-21.88,-33.993,-11.722,32.039,-63.297,0,-30.085,-22.662,-63.297,9.377,-17.973,-46.105,-18.364,-33.211,-9.377,-6.252,82.442,-24.615,-17.973
-29.695,-53.138,12.894,12.112,-39.463,-41.807,-3.516,28.523,-67.985,4.689,-26.569,-27.35,-67.985,19.536,-11.331,-58.217,-12.503,-27.35,-12.112,-15.629,89.475,-17.973,-11.331
-21.49,-44.542,13.284,-5.079,-31.258,-28.913,6.642,-4.298,-52.357,13.284,-8.987,-57.045,-48.84,16.02,-8.987,-65.25,-4.689,-12.112,-12.503,3.907,64.078,-22.662,-8.987
1.563,-39.072,11.331,-3.126,-7.424,-12.112,0,-8.987,-46.105,12.894,0,-58.217,-43.37,7.424,-7.033,-49.231,-7.814,-8.205,-10.549,19.145,31.648,-23.443,-7.033
19.927,-30.085,21.099,-10.159,10.549,0.781,-0.391,-8.987,-62.125,12.894,5.861,-56.264,-58.999,1.563,-5.47,-36.728,-6.252,-2.735,-20.317,21.49,15.629,-21.88,-5.47
30.867,-28.523,22.662,-8.205,18.755,7.033,0.391,-9.768,-64.078,16.02,9.377,-60.562,-58.217,-2.344,-3.126,-36.337,-4.689,3.907,-21.88,32.821,3.907,-24.615,-3.126
1.954,-30.476,22.271,-4.689,-12.894,2.344,-1.954,1.172,-61.343,16.02,4.689,-62.515,-60.952,1.172,-0.391,-43.37,-6.252,4.298,-21.49,33.602,-5.47,-19.145,-0.391
-3.907,-30.476,20.708,-3.907,-21.49,-3.907,-2.735,10.94,-62.906,17.973,0.781,-57.827,-66.032,11.331,-4.298,-42.979,-7.033,3.516,-19.927,29.695,-6.252,-13.284,-4.298
-15.238,-32.43,18.755,-5.861,-32.43,-6.642,-0.391,5.079,-60.562,14.457,-0.391,-57.436,-57.045,4.689,-9.377,-42.589,-7.814,4.298,-17.973,35.946,2.344,-17.582,-9.377
-28.523,-37.118,11.722,0,-47.277,-7.814,-6.252,7.814,-53.529,13.675,-3.907,-65.641,-50.403,9.377,-16.801,-51.575,-8.596,2.344,-10.94,46.496,1.563,-23.443,-16.801
-19.536,-41.807,10.94,8.987,-38.291,-11.331,-9.377,17.973,-64.86,10.94,-12.112,-67.985,-66.032,18.364,-28.132,-58.608,-10.94,-3.126,-10.159,41.416,21.88,-27.35,-28.132
9.377,-42.198,19.927,9.377,-7.033,-8.596,-3.907,17.582,-78.535,12.112,-13.284,-57.827,-72.674,11.722,-26.96,-49.621,-8.596,0,-19.145,44.542,29.695,-30.867,-26.96
31.258,-38.681,21.88,10.94,16.801,-2.735,-1.172,12.894,-75.8,14.066,-10.94,-58.608,-59.389,1.563,-30.085,-43.37,-8.205,2.344,-21.099,56.654,28.132,-37.509,-30.085
18.364,-34.383,24.225,14.066,9.377,-5.079,-4.689,24.615,-60.952,12.503,-12.894,-62.906,-62.125,14.066,-24.225,-52.747,-14.066,-2.735,-23.443,45.324,23.443,-29.695,-24.225
0.781,-31.258,23.443,19.145,-3.126,-11.331,-7.424,35.556,-68.767,9.768,-18.364,-61.734,-76.581,21.49,-26.178,-57.827,-18.364,-6.252,-22.662,36.728,32.43,-25.397,-26.178
-9.377,-36.337,28.523,21.49,-12.503,-21.099,4.689,34.383,-73.065,12.503,-19.145,-52.747,-71.502,14.066,-22.662,-53.529,-14.847,-1.172,-27.741,42.979,32.43,-21.099,-22.662
-23.443,-46.105,31.648,41.026,-27.35,-39.463,13.675,56.654,-66.813,15.629,-31.258,-25.397,-66.422,28.132,-24.615,-44.933,-12.112,2.735,-30.867,30.085,53.919,-10.94,-24.615
-28.523,-46.496,37.509,35.556,-32.43,-47.277,16.801,61.734,-81.661,14.847,-28.913,-36.337,-91.038,49.231,-23.053,-66.813,-10.159,5.079,-36.728,11.331,80.098,-6.252,-23.053
-12.894,-37.509,46.105,16.41,-18.364,-37.118,25.788,41.416,-73.846,22.662,-10.94,-56.264,-82.051,58.999,-12.894,-82.442,-2.735,19.145,-45.324,14.457,76.972,-6.252,-12.894
-1.954,-36.337,37.509,17.973,-8.596,-24.615,22.271,28.523,-69.548,20.708,4.298,-58.608,-69.939,42.198,-15.238,-59.78,-12.112,33.211,-36.728,38.681,40.244,-17.192,-15.238
10.549,-32.039,33.602,14.847,4.298,-17.192,19.145,21.49,-76.972,18.755,12.503,-66.813,-75.8,39.853,-17.973,-58.217,-17.582,39.072,-32.821,42.589,31.258,-20.708,-17.973
17.582,-32.821,28.913,10.94,8.987,-14.066,16.02,13.675,-78.926,17.582,16.02,-60.952,-71.111,30.085,-8.596,-55.873,-22.271,43.761,-28.132,54.31,11.722,-21.88,-8.596
7.424,-34.383,24.225,17.582,-4.298,-18.364,18.364,20.708,-86.74,13.675,11.331,-54.701,-74.628,23.834,-13.284,-50.012,-29.304,46.886,-23.443,61.734,0,-23.053,-13.284
-12.894,-34.774,26.569,20.317,-26.96,-24.615,22.271,28.913,-95.336,8.205,5.47,-56.654,-85.568,27.741,-15.629,-64.469,-30.867,47.668,-25.788,51.575,15.629,-22.662,-15.629
-25.006,-33.211,29.695,9.768,-46.496,-23.053,25.397,25.397,-77.753,5.861,5.079,-55.092,-69.158,28.523,-16.801,-63.297,-31.258,47.277,-28.913,51.966,7.814,-19.927,-16.801
-28.523,-31.648,30.867,10.159,-54.701,-19.536,28.913,26.96,-71.502,2.735,1.172,-46.496,-58.999,20.708,-29.304,-45.324,-28.913,49.621,-30.085,55.873,5.079,-24.615,-29.304
-37.9,-30.867,30.085,10.94,-63.687,-22.662,28.132,30.867,-79.707,0.781,-5.861,-58.999,-70.33,20.317,-36.728,-57.827,-31.258,42.589,-29.304,44.542,13.675,-25.397,-36.728
0.391,-23.053,27.741,2.735,-21.49,-24.615,25.397,30.085,-76.972,-0.391,-9.768,-76.972,-81.27,30.085,-33.602,-80.488,-30.867,35.556,-26.96,36.728,12.112,-24.225,-33.602
-0.781,-26.178,26.569,-2.735,-21.88,-26.569,23.443,21.88,-70.72,-0.391,-10.549,-75.018,-64.86,15.629,-36.728,-71.502,-32.43,35.165,-25.788,52.357,-0.781,-31.258,-36.728
-0.781,-35.165,13.284,8.596,-21.099,-32.039,19.536,20.708,-86.349,-1.172,-14.847,-69.158,-66.813,1.954,-42.589,-64.86,-35.946,32.039,-12.503,66.032,-3.126,-35.556,-42.589
1.172,-34.383,10.549,9.377,-24.615,-35.946,11.722,34.774,-92.21,-1.954,-21.88,-76.972,-84.396,18.364,-41.807,-86.74,-37.9,20.708,-9.768,52.357,1.954,-27.741,-41.807
-37.509,-35.946,12.894,13.675,-68.376,-39.463,11.331,50.012,-66.422,0.391,-31.648,-77.363,-66.813,34.383,-46.886,-96.508,-36.728,17.582,-12.112,39.463,15.629,-19.145,-46.886
-53.919,-48.059,2.344,37.9,-94.164,-48.84,20.317,60.562,-100.806,7.424,-47.277,-54.31,-87.131,32.43,-55.873,-85.177,-27.35,19.145,-1.563,40.244,30.867,-17.582,-55.873
-76.972,-42.198,18.755,23.834,-119.56,-52.357,31.648,62.906,-123.858,13.675,-39.463,-69.158,-100.415,49.231,-53.529,-114.872,-19.145,17.973,-17.973,21.49,58.608,-18.755,-53.529
-14.457,-29.695,31.258,4.298,-55.482,-39.463,35.165,51.575,-104.713,12.894,-34.383,-92.21,-93.773,63.687,-60.952,-127.766,-15.238,24.615,-30.476,20.708,47.668,-6.642,-60.952
1.563,-28.523,35.165,9.377,-35.556,-25.006,29.304,49.231,-105.885,12.112,-35.556,-89.475,-112.527,44.933,-33.211,-117.216,-19.927,30.476,-34.383,40.635,-1.954,-0.781,-33.211
28.913,-23.443,28.132,5.47,-1.563,-21.88,26.96,35.946,-108.23,6.642,-21.88,-104.322,-115.263,44.933,-36.337,-121.514,-25.006,34.383,-27.35,51.184,9.377,-30.085,-36.337
-12.112,-30.476,17.192,1.563,-45.714,-26.178,22.271,26.569,-89.084,-6.642,-4.298,-100.806,-67.595,40.244,-73.846,-101.197,-38.291,33.211,-16.41,64.469,28.132,-58.217,-73.846
-19.145,-42.198,0.391,15.238,-52.357,-35.946,18.364,25.006,-64.469,-17.582,-3.516,-86.74,-28.913,28.913,-80.488,-93.773,-46.886,29.695,0.391,73.065,30.867,-58.608,-80.488
6.252,-37.9,11.722,7.814,-27.35,-33.993,26.96,22.662,-101.197,-26.569,15.629,-80.879,-42.198,38.681,-100.806,-88.694,-44.933,32.821,-10.94,66.422,87.912,-92.991,-100.806
-24.615,-46.496,4.689,10.549,-76.972,-30.867,26.96,26.178,-141.05,-35.165,32.821,-84.396,-19.927,30.867,-157.851,-81.661,-44.151,32.039,-3.907,76.972,96.508,-82.051,-157.851
-14.847,-40.635,22.662,11.722,-58.217,-19.927,31.648,24.615,-65.25,-25.788,-32.039,-100.806,-55.092,23.443,-100.024,-93.382,-41.026,28.132,-21.88,71.502,2.344,5.47,-100.024
-3.126,-30.476,30.867,9.377,-39.853,-4.298,32.821,17.973,-79.707,-3.907,-41.416,-101.978,-81.661,20.317,-69.548,-96.899,-29.304,30.476,-30.085,66.422,11.331,-8.596,-69.548
-53.919,-29.695,25.788,8.205,-95.726,-0.391,32.039,14.066,-89.084,1.563,-38.291,-129.328,-97.68,23.834,-45.324,-136.752,-27.741,26.96,-25.006,59.78,13.675,-11.722,-45.324
-112.527,-26.178,14.066,0.391,-144.957,-2.344,24.615,-1.954,-31.258,7.424,-41.807,-155.507,-62.906,37.509,-36.337,-160.195,-27.35,23.443,-13.284,48.449,10.549,-3.516,-36.337
-27.35,-16.41,30.085,4.689,-49.231,6.642,31.258,2.344,-44.542,12.503,-17.973,-125.031,-46.496,30.476,-15.629,-143.785,-19.536,33.602,-29.304,48.059,37.118,-25.397,-15.629
15.629,-23.443,30.476,14.847,-15.238,3.907,38.291,10.94,-55.482,8.205,-4.298,-107.448,-37.118,30.867,-26.569,-126.593,-14.066,37.509,-29.695,53.138,45.714,-29.304,-26.569
-20.708,-16.02,29.304,21.88,-44.933,-1.954,36.728,24.225,-17.582,3.516,-14.457,-111.746,-19.927,53.529,-36.728,-137.143,-14.847,33.602,-28.523,30.476,64.86,-9.768,-36.728
-63.297,-22.662,35.946,38.681,-85.177,-16.41,41.416,49.231,-41.026,14.847,-34.383,-99.243,-55.482,69.158,-28.913,-144.176,-8.987,31.648,-35.165,9.377,88.303,0.391,-28.913
-52.747,-30.476,41.807,35.556,-82.442,-16.02,55.482,36.728,-7.424,20.708,-23.053,-111.746,-15.629,66.422,-20.708,-151.209,7.033,39.853,-41.026,20.708,95.336,-12.503,-20.708
-80.488,-27.35,42.979,21.099,-120.733,1.563,62.125,13.284,-21.88,33.211,-5.861,-144.567,-18.364,76.581,-30.476,-166.056,18.755,42.979,-42.198,24.615,100.806,-8.205,-30.476
-81.27,-29.695,41.416,13.675,-128.547,27.741,47.277,-1.563,-81.661,38.291,7.033,-139.487,-63.687,60.562,-33.993,-138.315,29.304,47.277,-40.635,42.979,74.628,-12.894,-33.993
-5.079,-25.006,47.668,-0.781,-58.217,42.589,47.277,-16.41,-94.945,36.728,17.192,-139.487,-73.455,42.198,-36.337,-111.355,39.853,53.919,-46.886,58.217,51.575,-26.569,-36.337
1.563,-12.112,39.463,1.563,-44.151,47.668,46.496,-19.145,-100.024,25.397,24.225,-145.348,-97.289,53.138,-41.416,-109.011,39.463,55.482,-38.681,50.012,57.827,-26.569,-41.416
-105.104,-9.377,30.867,2.735,-149.255,47.668,41.416,-20.708,-46.105,27.741,23.834,-139.878,-42.198,55.482,-42.198,-103.541,40.635,52.357,-30.085,45.324,58.999,-28.523,-42.198
-119.56,-10.549,28.913,0,-161.368,42.979,44.542,-27.741,15.238,29.695,21.49,-138.706,16.41,39.853,-30.085,-96.899,46.496,49.231,-28.132,51.966,51.575,-46.496,-30.085
-28.523,-7.033,47.277,-0.781,-61.734,43.37,55.092,-26.569,52.357,35.946,32.43,-154.335,45.324,45.324,-8.987,-113.7,58.217,49.621,-46.496,39.072,57.827,-43.37,-8.987
-18.364,-8.205,48.84,3.126,-69.548,62.515,57.827,-24.225,7.424,55.092,41.026,-159.805,16.801,46.886,-7.033,-110.965,76.581,51.575,-48.059,40.244,51.575,-47.277,-7.033
-2.344,-18.364,88.694,-9.768,-61.734,67.985,69.548,-19.145,-69.939,33.602,42.979,-141.441,-69.158,19.927,-13.284,-70.72,89.084,53.919,-87.912,47.277,48.059,-61.343,-13.284
35.165,-10.159,105.885,-6.252,-12.894,68.376,79.707,-10.549,-101.197,21.49,54.31,-133.236,-104.322,0.781,6.252,-60.562,103.541,58.999,-105.104,33.993,62.125,-74.628,6.252
-14.066,3.126,105.885,-7.814,-64.078,85.177,75.409,-10.159,-72.283,27.741,62.515,-154.725,-81.27,18.364,10.94,-83.614,103.15,53.138,-105.104,28.132,53.529,-60.952,10.94
-32.039,7.424,95.336,1.563,-67.204,80.488,63.297,-4.689,-30.085,23.443,57.827,-161.758,-52.747,28.913,1.954,-88.303,102.369,41.416,-94.554,20.708,41.807,-37.9,1.954
-13.284,9.377,87.912,14.066,-22.662,61.343,66.032,-6.252,41.807,29.304,59.389,-159.414,17.192,22.662,18.755,-87.912,114.872,40.244,-87.131,24.615,44.151,-46.105,18.755
6.642,7.814,92.991,18.364,-16.02,71.893,74.628,-4.689,37.118,59.78,62.906,-163.712,30.867,41.807,18.364,-94.554,137.534,41.416,-92.21,17.582,43.37,-24.615,18.364
-0.781,-5.079,88.694,35.165,-16.801,39.463,68.767,25.788,-3.907,55.482,45.714,-156.679,-34.383,75.8,6.252,-106.667,150.037,28.132,-87.912,-8.987,66.422,-6.252,6.252
-13.284,-7.814,107.839,21.099,-41.026,43.37,83.223,21.49,-31.648,51.184,53.529,-169.573,-73.846,76.581,23.053,-121.123,163.321,28.913,-107.057,-16.02,84.396,-16.801,23.053
-10.549,0.391,109.011,7.814,-42.979,58.999,92.21,-1.954,-6.252,62.515,74.237,-192.234,-33.993,81.661,10.94,-119.17,182.466,40.635,-108.23,3.516,58.999,-11.722,10.94
1.563,2.344,99.243,17.582,-23.053,67.204,83.614,-7.033,-0.391,59.78,85.177,-193.016,-28.132,55.092,22.662,-97.68,179.341,41.026,-98.462,25.006,30.085,-30.085,22.662
-1.563,11.722,105.885,16.41,-6.642,66.813,84.005,-10.94,17.973,54.31,94.164,-190.281,-19.927,52.357,21.099,-77.363,187.937,47.668,-105.104,30.867,13.284,-23.834,21.099
-9.377,14.847,110.574,23.443,-7.424,71.111,87.912,-11.722,48.84,51.966,100.806,-195.751,8.205,34.383,34.383,-69.939,196.142,55.873,-109.792,37.118,16.02,-42.979,34.383
-56.654,8.987,110.965,37.118,-47.277,61.343,88.694,-1.563,17.192,55.873,99.243,-198.486,-34.383,32.43,46.496,-68.767,196.923,55.092,-110.183,32.039,13.284,-40.635,46.496
-27.35,10.159,126.203,41.026,-15.629,60.562,95.726,8.987,-13.675,60.562,100.415,-191.844,-74.628,47.277,46.886,-62.906,199.658,55.482,-125.421,22.271,17.192,-20.708,46.886
10.549,12.503,131.282,45.714,17.973,71.111,105.885,5.079,-15.238,64.469,105.885,-192.625,-75.8,37.118,57.436,-54.701,206.3,62.515,-130.501,26.178,19.536,-24.225,57.436
-28.913,8.596,130.11,59.78,-26.569,75.409,109.402,9.768,-11.331,76.972,108.23,-198.486,-71.893,42.198,62.125,-55.873,212.161,63.687,-129.328,28.523,17.973,-21.49,62.125
11.722,12.894,136.361,67.595,15.238,76.581,113.7,22.662,-28.913,80.098,105.885,-196.923,-96.899,49.621,64.86,-56.654,213.724,64.86,-135.58,20.708,15.629,-11.722,64.86
16.02,12.503,139.487,73.065,21.49,76.19,121.123,21.88,-8.205,83.614,106.667,-188.327,-70.72,42.589,65.25,-43.37,219.585,72.674,-138.706,26.178,10.94,-9.377,65.25
-66.813,5.861,133.626,75.8,-58.999,72.674,121.905,13.284,-20.708,80.488,106.276,-194.579,-72.674,28.913,47.668,-32.43,214.505,68.767,-132.845,38.681,12.112,-16.41,47.668
-106.276,2.344,123.858,83.223,-89.475,60.171,113.7,18.755,-78.926,80.488,97.68,-201.221,-133.626,40.635,28.913,-37.118,202.393,55.482,-123.077,33.211,17.582,-11.331,28.913
-65.25,1.954,119.56,91.429,-45.324,53.529,110.183,29.695,-22.662,66.422,88.694,-193.797,-87.521,49.231,15.629,-37.9,195.751,48.84,-118.779,23.443,37.118,-8.205,15.629
-57.827,-9.377,101.197,104.322,-39.072,39.853,115.653,20.317,10.159,60.952,78.926,-189.89,-50.794,41.416,-1.954,-25.788,191.062,47.668,-100.415,34.383,50.403,-18.755,-1.954
-67.204,-22.271,85.958,123.077,-52.357,18.755,119.17,32.821,-6.642,67.204,62.515,-159.414,-61.734,46.496,-10.94,-9.768,180.904,44.542,-85.177,29.304,54.701,-9.377,-10.94
12.894,-10.549,106.667,110.965,23.443,25.006,122.295,47.277,-25.788,67.204,65.641,-158.632,-93.382,57.045,2.735,-17.192,184.42,47.277,-105.885,11.722,42.589,4.298,2.735
1.954,-2.735,96.899,101.587,13.284,31.648,126.984,25.006,-39.853,78.144,77.753,-185.592,-102.759,58.608,1.172,-26.178,192.625,53.919,-96.117,18.755,34.383,0.391,1.172
-65.641,-3.126,87.521,98.462,-54.701,44.542,119.951,7.033,-97.289,85.177,93.773,-188.718,-146.911,44.542,1.172,-5.861,184.42,57.436,-86.74,40.635,-0.391,-3.126,1.172
-62.515,5.47,94.554,93.382,-44.933,52.747,115.263,7.814,-62.906,72.674,101.587,-193.797,-122.295,39.853,7.424,-7.033,179.731,56.264,-93.773,37.9,4.298,-8.987,7.424
-40.244,3.126,84.786,92.21,-22.662,53.138,108.23,1.172,0.391,68.376,100.024,-187.937,-57.827,32.039,10.159,-3.126,169.573,56.264,-84.005,41.026,6.252,-15.629,10.159
-57.827,-1.954,74.628,96.508,-44.151,50.012,102.759,1.954,0.391,63.297,96.117,-181.294,-55.482,25.006,16.41,-5.861,153.553,54.31,-73.846,41.807,6.252,-17.192,16.41
-73.455,6.252,94.554,85.177,-51.966,40.635,103.15,21.49,-2.344,58.608,95.336,-180.513,-71.502,31.258,24.615,-12.503,150.427,53.529,-93.773,26.569,0.781,-10.159,24.615
-22.271,9.768,90.256,82.833,-0.781,37.9,100.415,21.88,11.722,57.045,95.726,-176.215,-62.125,33.602,27.35,-9.377,155.507,50.403,-89.475,29.695,-13.284,-7.424,27.35
-21.88,10.159,82.442,80.098,3.126,34.383,98.071,15.629,13.675,54.701,95.726,-167.619,-53.529,27.741,21.88,2.344,156.679,44.151,-81.661,32.43,-12.112,-12.112,21.88
-32.821,7.814,75.409,77.753,-8.987,24.615,92.21,20.317,-6.252,50.794,94.164,-177.387,-77.753,31.258,21.49,-12.112,153.162,33.993,-74.628,26.96,-11.722,-14.457,21.49
11.722,0.391,63.297,71.893,28.913,17.973,86.74,14.066,-3.907,44.933,89.866,-195.751,-73.065,33.993,10.549,-34.383,146.52,24.225,-62.515,25.788,4.298,-23.053,10.549
14.457,-1.563,53.919,64.078,30.085,17.192,84.786,-1.172,-28.132,41.807,89.475,-192.234,-73.065,3.907,13.284,-32.039,137.924,22.271,-53.138,37.9,6.252,-37.9,13.284
-66.813,-13.675,49.231,57.436,-57.045,7.424,79.707,-3.907,-53.138,36.337,84.005,-185.983,-75.409,-16.41,1.954,-26.96,123.858,16.41,-48.449,52.357,-2.344,-42.979,1.954
-55.092,-15.238,44.542,55.092,-42.198,-5.079,69.548,6.642,-50.012,26.178,73.846,-194.969,-82.442,-1.954,-5.47,-52.747,116.825,0.781,-43.761,38.291,6.642,-33.211,-5.47
-63.687,-16.801,42.198,55.092,-53.529,-9.768,66.032,14.457,-48.449,24.225,63.687,-193.407,-88.694,11.722,2.344,-78.144,117.216,-7.814,-41.416,28.132,16.801,-24.615,2.344
-66.422,-30.476,30.867,64.86,-67.985,-26.96,69.548,23.834,-36.337,21.099,41.807,-169.182,-69.548,6.252,-5.47,-71.502,115.653,-14.457,-30.085,32.821,6.642,-20.317,-5.47
-35.556,-33.602,37.118,59.389,-41.416,-33.602,78.144,24.225,-25.006,18.755,39.072,-184.42,-68.376,18.364,9.377,-109.402,116.435,-21.88,-36.337,15.629,25.788,-13.675,9.377
-30.867,-21.099,39.463,40.244,-42.589,-18.364,78.535,10.549,-5.47,19.927,45.714,-202.002,-56.264,23.834,24.615,-132.845,118.388,-19.927,-38.681,19.927,13.675,-19.145,24.615
-45.714,-14.847,35.556,37.9,-57.436,-8.987,71.111,8.205,-20.317,8.987,50.403,-185.983,-60.952,-4.689,34.383,-113.7,107.057,-17.973,-34.774,37.9,-17.582,-31.258,34.383
-24.615,-15.629,36.337,37.9,-28.523,-8.596,67.595,3.516,-35.165,3.516,53.529,-194.188,-71.111,7.814,14.457,-122.295,99.243,-21.099,-35.556,37.509,-8.205,-16.02,14.457
-9.377,-14.457,33.211,37.9,-9.377,-5.861,61.734,1.563,-36.728,1.954,54.701,-185.201,-76.19,14.457,16.41,-118.388,91.819,-25.006,-32.43,41.807,-18.755,-10.94,16.41
-24.615,-18.755,32.43,42.979,-23.053,-8.205,57.436,5.861,-34.774,5.47,44.933,-160.586,-64.86,6.252,18.755,-103.15,90.647,-30.476,-31.648,38.291,-20.317,-10.549,18.755
3.516,-25.006,30.085,44.542,3.516,-11.722,55.482,6.252,-30.476,5.861,35.946,-159.023,-60.171,10.159,14.066,-110.965,89.475,-38.681,-29.304,38.291,-19.145,-5.47,14.066
10.159,-21.099,36.337,37.118,6.642,-5.861,56.654,5.079,-14.457,7.033,35.556,-163.321,-53.138,14.457,26.96,-121.905,88.303,-41.026,-35.556,33.993,-24.225,-5.861,26.96
-7.033,-19.927,37.118,35.556,-14.066,-1.954,54.31,9.377,-12.503,3.907,32.43,-144.567,-44.542,0.781,25.788,-101.587,88.303,-41.416,-36.337,37.509,-28.132,-16.41,25.788
-2.735,-24.615,35.946,39.463,-12.112,-2.344,53.138,9.768,-18.364,-1.954,28.132,-128.156,-43.37,3.516,8.596,-88.303,83.614,-42.979,-35.165,38.681,-24.225,0,8.596
11.331,-26.178,31.648,35.556,1.172,-3.907,49.231,7.033,-37.118,-14.457,27.35,-137.143,-72.283,7.033,1.954,-98.462,73.455,-52.357,-30.867,33.993,-15.629,0,1.954
-35.946,-32.43,24.225,29.695,-50.012,-5.47,40.635,1.172,-31.648,-18.364,26.96,-141.05,-69.548,6.252,-1.563,-98.852,66.032,-59.389,-23.443,31.648,-9.377,-10.549,-1.563
-16.41,-36.337,19.536,37.509,-28.913,-3.907,38.291,0.391,-12.503,-17.582,26.569,-119.951,-36.337,-12.112,4.298,-78.926,62.906,-60.562,-18.755,41.807,-10.94,-17.582,4.298
34.383,-42.589,14.847,43.761,25.397,-11.331,35.946,2.344,-14.847,-16.801,26.569,-106.276,-33.993,-17.582,9.377,-69.939,58.217,-66.032,-14.066,42.589,0,-27.741,9.377
-17.192,-44.933,7.814,50.794,-21.49,-25.788,25.788,18.364,-25.397,-13.675,21.49,-104.713,-56.654,0,19.536,-85.177,50.403,-76.972,-7.033,17.973,13.284,-19.927,19.536
-41.416,-47.668,8.596,67.985,-40.635,-47.277,23.443,52.357,-36.728,-9.377,6.252,-89.866,-74.628,21.099,19.145,-95.336,42.589,-86.349,-7.814,-12.112,48.449,-11.722,19.145
-35.946,-51.184,5.861,61.734,-32.43,-55.482,28.523,40.244,-45.714,-10.94,5.079,-84.005,-78.144,16.801,17.582,-92.991,47.668,-87.131,-5.079,-7.033,50.403,-8.987,17.582
-44.542,-50.794,8.596,41.026,-43.761,-52.747,32.821,19.145,-53.529,-10.94,12.112,-101.978,-85.177,11.331,17.582,-98.071,44.933,-90.256,-7.814,-3.516,42.979,-12.894,17.582
-49.231,-46.886,0.391,28.913,-54.701,-35.556,14.066,10.159,-29.304,-20.708,19.145,-88.694,-55.873,-14.066,24.615,-73.455,34.774,-87.521,0.391,19.927,4.689,-32.43,24.615
20.708,-42.979,-1.172,20.317,8.596,-22.662,9.377,1.563,-1.563,-24.225,29.304,-82.051,-19.145,-32.43,30.867,-58.608,34.383,-80.488,1.954,41.807,-25.788,-43.37,30.867
21.099,-44.542,-2.344,18.755,8.987,-23.834,5.47,3.126,-8.205,-30.085,36.728,-84.396,-25.397,-38.291,30.867,-52.357,23.053,-78.926,3.126,41.807,-32.821,-46.886,30.867
-3.126,-45.324,-4.689,23.443,-17.973,-23.443,-0.781,14.066,0.781,-27.741,36.337,-72.674,-22.662,-32.821,36.728,-43.761,14.457,-77.753,5.47,37.9,-41.807,-44.151,36.728
2.344,-45.324,3.126,27.741,-1.954,-30.476,3.126,19.145,-7.814,-26.96,31.648,-65.641,-26.569,-35.946,31.648,-37.509,14.457,-76.19,-2.344,26.178,-16.41,-44.542,31.648
4.689,-46.496,4.298,24.615,2.344,-34.774,7.424,13.284,1.172,-28.523,31.258,-82.442,-23.834,-39.072,37.118,-51.575,7.814,-76.972,-3.516,23.443,-9.377,-50.403,37.118
-8.987,-45.324,1.172,24.225,-13.675,-32.039,4.298,12.894,-17.973,-30.085,27.741,-92.991,-53.138,-33.993,39.072,-65.641,0,-78.535,-0.391,19.536,-4.689,-51.966,39.072
26.96,-41.807,-1.954,24.615,21.099,-31.648,5.079,13.675,2.344,-32.821,24.615,-80.098,-26.178,-42.198,41.807,-58.608,-3.126,-76.19,2.735,27.741,-11.331,-51.575,41.807
14.066,-44.933,-5.47,17.582,7.424,-35.165,7.033,1.954,28.523,-32.821,24.615,-82.833,4.298,-45.714,35.946,-57.045,-9.768,-73.065,6.252,40.244,-21.099,-45.714,35.946
-17.192,-38.681,-3.907,11.331,-18.755,-30.085,2.735,-1.172,9.768,-31.258,27.35,-103.932,-30.476,-23.834,37.509,-80.098,-17.582,-74.628,4.689,26.569,-14.847,-31.258,37.509
-3.907,-33.211,-3.907,11.722,-0.391,-30.085,-2.344,4.689,13.675,-27.741,23.834,-105.885,-34.383,-15.238,42.979,-88.303,-21.49,-78.144,4.689,16.41,-11.722,-23.834,42.979
-1.563,-33.993,0.781,15.629,6.252,-37.118,5.079,6.252,10.94,-21.88,21.49,-95.336,-32.43,-20.708,49.231,-79.707,-21.099,-74.628,0,11.722,-5.47,-20.317,49.231
14.847,-29.304,4.689,12.894,22.271,-39.853,12.894,8.596,16.41,-10.159,22.662,-92.21,-33.602,-6.252,63.687,-87.131,-17.582,-71.111,-3.907,0.391,2.735,-18.364,63.687
42.589,-27.35,4.298,27.35,47.277,-57.045,10.94,46.496,-0.781,-6.642,9.377,-74.237,-63.687,37.118,62.515,-109.402,-20.708,-81.661,-3.516,-35.556,37.509,5.861,62.515
7.424,-27.35,5.47,16.801,12.894,-65.641,14.457,41.026,23.053,-2.344,10.159,-71.893,-35.165,46.886,65.25,-117.607,-21.49,-74.628,-4.689,-42.979,51.184,7.424,65.25
-33.602,-26.96,6.252,-2.735,-27.35,-62.515,22.662,10.159,34.774,3.126,26.178,-96.899,-19.927,54.31,62.515,-128.938,-22.662,-63.687,-5.47,-26.569,40.635,7.814,62.515
-12.112,-25.397,-1.954,-4.298,-3.907,-54.31,10.549,3.126,16.41,-5.079,33.211,-82.442,-37.9,39.072,63.687,-101.978,-36.728,-64.469,2.735,-5.079,6.252,2.344,63.687
10.94,-27.35,0.391,-9.377,19.927,-47.277,4.298,-3.126,48.059,-7.814,37.118,-67.204,-0.391,14.066,81.661,-85.177,-39.072,-63.297,0.391,0.391,5.079,-16.41,81.661
17.582,-21.88,-2.344,-13.675,26.569,-44.151,4.298,-8.596,59.78,-12.894,38.681,-60.952,8.596,8.987,84.786,-78.144,-43.37,-60.952,3.126,14.066,-10.549,-19.145,84.786
51.575,-21.099,-5.079,-9.768,57.827,-44.933,-1.172,2.344,53.138,-21.099,32.43,-53.138,-1.954,9.768,79.707,-75.8,-50.403,-64.078,5.861,8.987,-4.689,-18.755,79.707
10.549,-24.225,-7.814,-9.377,12.503,-49.621,-2.344,7.814,64.86,-22.662,27.741,-43.761,6.252,1.954,89.475,-71.893,-51.966,-67.595,8.596,4.298,0.781,-33.602,89.475
-46.105,-29.304,-7.033,-13.284,-46.105,-52.747,-0.391,1.954,55.092,-23.443,25.397,-40.244,-7.814,24.615,66.422,-66.422,-56.654,-67.595,7.814,6.252,-10.94,0,66.422
-53.919,-28.913,-14.847,-4.689,-52.357,-54.701,-5.079,7.814,21.49,-24.225,21.49,-48.059,-47.277,20.708,66.813,-69.158,-60.562,-72.674,15.629,9.377,-16.41,-8.987,66.813
-15.238,-28.523,-16.801,1.954,-10.549,-56.654,-9.377,17.192,23.053,-15.238,15.629,-46.105,-53.138,23.053,78.926,-71.502,-56.654,-78.535,17.582,0.781,-17.582,-12.503,78.926
4.298,-26.96,-14.847,3.516,13.284,-55.873,-7.033,14.847,28.913,-4.298,15.238,-34.383,-39.072,25.006,77.753,-57.827,-49.621,-72.283,15.629,1.172,-21.099,-4.298,77.753
34.383,-28.913,-19.536,6.252,47.277,-54.31,-6.642,5.861,38.681,-2.344,17.192,-32.821,-16.02,11.331,70.72,-44.933,-49.621,-66.422,20.317,12.112,-22.662,-12.503,70.72
34.774,-34.383,-19.927,11.331,45.714,-55.873,-14.066,16.801,32.43,-2.344,16.02,-31.648,-33.993,19.927,78.926,-50.012,-54.701,-67.204,20.708,3.516,-33.993,-6.642,78.926
15.238,-34.774,-16.02,27.741,25.788,-55.873,-15.238,37.509,21.88,-4.298,12.503,-16.801,-51.575,33.211,80.879,-48.84,-53.919,-61.343,16.801,-7.814,-30.867,5.47,80.879
-5.47,-44.542,-14.847,41.416,1.954,-63.297,-5.079,41.807,3.907,-5.079,7.814,-0.391,-64.469,36.728,71.111,-36.728,-55.482,-52.747,15.629,-1.954,-26.96,12.503,71.111
-8.205,-53.919,-11.722,66.032,-4.689,-79.316,2.735,71.893,-16.41,-3.126,-6.642,32.039,-75.8,41.807,66.813,-27.741,-51.575,-53.138,12.503,-13.284,-5.47,19.536,66.813
-30.867,-45.324,-14.066,61.734,-27.741,-73.065,-3.126,75.8,-20.708,-0.391,-12.894,31.258,-86.349,56.264,66.422,-39.072,-43.37,-55.873,14.847,-28.132,1.563,20.708,66.422
-25.006,-39.463,-12.112,41.416,-27.35,-67.595,8.205,50.794,-6.252,5.861,1.563,9.377,-71.502,74.628,63.687,-56.654,-36.728,-46.496,12.894,-31.648,9.377,21.88,63.687
-29.695,-38.681,-23.443,36.337,-36.337,-52.357,0,32.821,17.192,1.954,17.192,5.47,-40.244,48.84,74.628,-41.416,-39.853,-36.337,24.225,-5.079,-33.602,1.954,74.628
-21.099,-35.556,-30.867,28.913,-30.085,-42.979,-8.596,23.053,26.96,-3.126,28.132,-0.781,-34.383,42.979,85.177,-43.37,-44.542,-31.648,31.648,1.954,-57.827,-3.126,85.177
-3.126,-39.463,-30.085,26.96,-15.238,-41.807,-9.768,21.49,11.331,-8.987,32.821,3.907,-47.668,45.324,82.051,-40.635,-51.966,-23.834,30.867,12.503,-67.595,2.344,82.051
8.987,-45.324,-32.039,28.523,-8.987,-46.496,-12.112,27.741,-14.457,-16.02,32.039,8.596,-66.032,39.072,76.972,-40.244,-59.389,-17.582,32.821,18.755,-80.488,8.596,76.972
23.834,-38.291,-35.946,29.695,4.689,-47.277,-14.847,36.728,-36.728,-18.755,27.741,3.907,-82.833,37.509,70.72,-50.012,-60.562,-17.192,36.728,5.47,-66.813,4.689,70.72
1.954,-35.946,-33.993,21.88,-17.973,-44.933,-15.238,33.211,-34.383,-17.973,26.96,1.172,-76.19,35.556,70.72,-54.31,-57.436,-14.066,34.774,7.033,-66.813,1.954,70.72
-22.662,-46.496,-27.741,18.755,-46.496,-44.542,-12.503,24.615,-12.112,-11.331,29.304,0,-41.416,19.145,87.521,-60.562,-55.482,-8.205,28.523,16.41,-56.264,-17.973,87.521
4.298,-40.635,-32.43,16.02,-19.927,-42.979,-16.801,26.96,-1.172,-16.801,24.615,-22.662,-32.43,-5.861,106.276,-84.396,-55.873,-9.768,33.211,12.503,-43.37,-55.873,106.276
-38.291,-44.542,-38.681,7.424,-61.734,-47.277,-23.834,18.755,-7.814,-24.225,16.41,-54.701,-48.449,17.192,81.661,-122.295,-62.125,-14.066,39.463,13.675,-42.589,-28.913,81.661
-0.391,-54.701,-20.708,-14.457,-22.271,-46.886,-19.145,-1.954,-23.834,-26.178,14.066,-67.595,-54.701,14.457,59.78,-124.64,-65.641,-8.596,21.49,36.337,-41.807,-28.523,59.78
23.834,-33.211,-40.244,-19.536,7.033,-42.979,-25.788,-6.642,-36.728,-32.43,8.205,-64.469,-58.608,6.642,43.761,-117.998,-70.33,-6.252,41.026,11.722,-51.966,-11.331,43.761
33.993,-28.132,-46.105,-24.225,25.006,-44.542,-42.589,-1.954,-30.476,-33.211,-6.252,-76.19,-65.641,41.416,8.987,-133.236,-75.018,-17.582,46.886,-4.689,-47.668,17.192,8.987
17.973,-27.35,-27.35,-28.913,12.894,-48.84,-39.072,7.424,-20.708,-23.053,-12.112,-71.502,-64.86,51.966,38.681,-155.507,-67.985,-21.099,28.132,-26.569,-35.165,21.099,38.681
-1.954,-34.774,-33.211,-11.722,-11.331,-60.562,-33.602,22.662,-14.847,-15.629,-33.602,-51.966,-55.092,41.026,32.039,-136.752,-58.217,-23.834,33.993,-34.774,-25.788,12.894,32.039
12.894,-33.211,-26.178,-16.41,3.907,-62.906,-24.225,19.145,-17.192,-9.768,-42.589,-67.985,-66.813,51.966,27.741,-153.944,-51.575,-32.039,26.96,-41.416,-14.847,13.284,27.741
-33.602,-27.35,-7.424,-42.589,-38.291,-53.529,-16.41,-3.516,5.47,-7.424,-32.821,-99.634,-54.701,62.515,32.821,-177.778,-44.542,-32.43,8.205,-43.37,-10.549,14.847,32.821
-9.377,-23.443,-9.768,-52.747,-11.331,-37.509,-25.397,-22.271,-3.126,-16.41,-28.523,-100.024,-62.515,40.244,16.02,-144.176,-50.012,-32.43,10.549,-26.178,-42.979,7.814,16.02
21.49,-14.847,-13.675,-52.357,21.88,-25.788,-25.397,-30.085,5.861,-17.973,-17.582,-109.402,-55.482,38.681,15.629,-140.269,-51.575,-29.695,14.457,-19.536,-64.469,12.503,15.629
-10.549,-10.94,-2.735,-59.389,-6.642,-17.192,-27.35,-32.43,-3.126,-17.192,-9.377,-109.792,-57.827,27.741,19.536,-130.891,-54.31,-25.397,3.516,-23.443,-60.952,5.079,19.536
-10.159,-13.284,6.252,-53.919,-8.205,-15.629,-25.006,-22.271,-16.02,-9.768,-8.205,-94.945,-60.171,18.755,25.397,-115.263,-54.31,-19.145,-5.47,-22.271,-59.78,0.391,25.397
23.443,-4.689,3.516,-50.794,19.145,-15.238,-16.801,-14.847,-1.563,-2.735,-8.987,-97.68,-42.979,29.695,17.192,-117.216,-52.747,-12.112,-2.735,-25.788,-60.171,2.735,17.192
18.364,-2.735,10.159,-51.966,22.662,-19.927,-12.503,-16.02,10.159,-1.954,-6.642,-113.309,-34.383,32.43,17.582,-128.547,-60.952,-10.94,-9.377,-26.569,-46.886,-3.126,17.582
19.145,-3.516,6.252,-48.449,26.569,-21.88,-10.549,-19.927,39.072,0,-10.94,-103.15,-8.987,43.37,3.516,-115.263,-64.469,-9.377,-5.47,-23.443,-54.31,16.41,3.516
47.277,-1.954,10.159,-47.277,57.436,-21.49,-8.205,-19.536,20.317,-3.516,-14.457,-85.177,-19.927,30.085,-4.298,-90.647,-67.204,-10.549,-9.377,-20.317,-41.026,5.47,-4.298
8.205,-2.735,3.516,-40.244,24.615,-23.053,-10.159,-21.49,-30.476,-5.47,-11.722,-100.415,-72.283,32.039,-6.642,-102.369,-72.674,-16.02,-2.735,-23.053,-32.43,8.596,-6.642
-7.814,14.457,19.145,-47.277,9.768,-5.47,-8.205,-16.41,-18.755,2.344,-4.298,-101.587,-54.31,31.648,-0.781,-100.024,-65.25,-10.549,-18.364,-40.244,-20.708,1.954,-0.781
-17.192,10.94,22.271,-39.072,-2.735,-1.172,-4.689,-13.284,-2.735,4.298,0,-79.316,-24.225,14.847,1.563,-70.33,-63.297,-7.033,-21.49,-23.834,-28.132,-10.549,1.563
9.377,-1.563,17.192,-21.49,21.88,-3.516,-5.079,-9.768,16.02,8.205,-3.516,-70.33,-7.033,38.681,-19.927,-61.734,-59.389,-12.112,-16.41,-8.596,-39.463,20.708,-19.927
12.894,0.391,28.913,-14.847,27.741,-5.47,-7.033,11.722,35.946,15.238,-16.02,-69.158,-8.205,62.125,-16.02,-71.111,-51.966,-20.708,-28.132,-26.96,-21.49,27.35,-16.02
18.364,-10.94,23.834,5.47,32.821,-28.913,-10.549,44.151,11.331,12.503,-35.556,-57.827,-48.449,79.316,-9.377,-91.429,-56.654,-34.774,-23.053,-59.389,21.88,32.43,-9.377
14.066,-24.615,15.629,7.033,28.523,-39.463,-7.033,30.867,-23.834,16.02,-41.026,-59.389,-73.065,80.879,-23.834,-93.382,-45.324,-37.509,-14.847,-41.026,21.88,42.979,-23.834
-19.145,-0.391,18.364,-16.801,0.781,-29.304,-1.172,10.94,-39.072,22.662,-27.35,-87.521,-76.581,58.608,-11.722,-101.587,-28.523,-35.946,-17.582,-57.827,26.96,25.397,-11.722
-32.43,1.954,6.252,-16.02,-5.861,-20.317,-17.973,4.298,-26.569,4.298,-24.615,-74.628,-67.985,46.496,-20.317,-80.879,-35.946,-42.198,-5.47,-41.807,-1.172,31.648,-20.317
-13.675,-1.172,-6.252,-19.536,8.596,-11.331,-25.397,-13.675,34.383,-9.377,-23.443,-77.753,-3.126,23.443,-30.476,-66.032,-33.602,-44.933,7.033,-15.629,-25.006,22.662,-30.476
-11.722,0.781,-6.252,-17.582,17.973,-8.205,-28.913,-15.629,75.018,-17.192,-24.225,-86.349,23.834,26.178,-37.509,-66.032,-35.556,-45.714,7.033,-14.457,-26.569,24.615,-37.509
24.225,-3.907,-10.549,-10.549,54.31,-10.94,-34.383,-9.377,73.846,-25.397,-29.695,-79.707,23.443,20.708,-34.383,-72.674,-42.589,-50.403,11.331,-11.722,-14.457,19.536,-34.383
3.516,-19.145,-21.49,-13.675,23.053,-18.755,-37.509,-17.192,66.032,-26.178,-35.946,-84.786,32.43,1.563,-39.853,-76.972,-40.635,-53.529,22.271,-3.907,-2.344,-0.391,-39.853
-42.979,-22.662,-24.615,-16.801,-29.695,-17.192,-37.118,-22.662,25.006,-16.41,-30.867,-101.197,0.391,10.549,-37.118,-98.462,-30.476,-50.794,25.397,-2.344,-8.205,12.112,-37.118
-37.118,-16.41,-32.821,-20.317,-27.741,-12.112,-40.635,-26.569,-33.211,-15.629,-30.867,-114.872,-59.78,13.675,-39.853,-110.965,-25.397,-55.092,33.602,-7.033,-10.549,14.066,-39.853
-6.642,-19.145,-38.681,-19.145,-2.344,-9.377,-42.198,-30.085,-36.728,-16.02,-36.728,-101.587,-53.529,7.033,-53.919,-91.429,-19.536,-57.436,39.463,0.391,-14.066,13.675,-53.919
11.722,-16.801,-33.602,-22.271,15.238,-3.516,-35.946,-36.728,-17.582,-8.205,-35.165,-98.462,-26.569,5.861,-54.701,-84.786,-14.066,-53.919,34.383,4.689,-16.02,18.364,-54.701
34.774,-6.642,-30.867,-25.788,46.496,1.954,-35.946,-41.416,-23.443,-7.814,-30.476,-116.825,-35.165,17.582,-62.906,-100.415,-16.41,-55.873,31.648,-2.344,2.344,16.41,-62.906
34.774,-11.722,-29.695,-18.364,48.059,-1.172,-39.463,-32.43,-16.02,-15.238,-32.821,-115.653,-28.132,10.159,-63.687,-99.634,-22.662,-61.343,30.476,-5.47,17.582,6.642,-63.687
-31.648,-28.132,-36.728,-8.205,-22.271,-10.94,-35.165,-35.946,-25.397,-11.722,-36.337,-107.839,-25.006,-5.47,-67.204,-84.786,-24.615,-63.297,37.509,5.079,21.88,-3.126,-67.204
-39.072,-34.774,-36.337,-0.391,-26.178,-18.364,-29.304,-36.337,-14.457,-12.894,-37.509,-106.667,-22.662,-1.172,-70.33,-78.144,-14.847,-65.641,37.118,1.563,39.463,-3.907,-70.33
-3.126,-42.198,-41.416,20.708,11.331,-36.728,-35.946,-5.861,-1.172,-14.847,-60.562,-91.819,-34.774,21.099,-75.8,-80.488,-16.41,-87.131,42.198,-26.569,72.674,6.252,-75.8
-16.801,-41.026,-42.979,17.582,3.907,-43.37,-31.648,-12.503,-4.689,-9.768,-65.641,-95.726,-43.37,29.304,-83.614,-78.926,-11.331,-88.694,43.761,-30.476,88.303,7.424,-83.614
-7.424,-31.258,-30.867,-1.563,19.145,-31.258,-18.755,-40.635,35.556,0.391,-47.668,-120.733,2.735,24.225,-84.786,-75.8,0.391,-76.581,31.648,-16.02,80.879,1.172,-84.786
-27.35,-31.648,-32.821,2.344,-0.391,-25.006,-23.443,-39.463,11.331,2.735,-37.118,-111.746,-7.814,1.954,-85.177,-44.151,-14.847,-73.455,33.602,2.344,45.714,-2.735,-85.177
-48.84,-33.993,-34.383,1.563,-25.006,-20.708,-25.788,-43.37,-29.304,2.735,-30.085,-99.243,-43.37,-20.317,-73.455,-18.755,-24.225,-67.204,35.165,17.973,21.88,-14.066,-73.455
-34.383,-32.43,-31.648,-2.344,-9.377,-22.271,-21.099,-47.668,-1.954,2.735,-21.099,-92.21,-18.364,-26.96,-67.204,-0.391,-24.225,-58.217,32.43,29.695,-0.781,-16.41,-67.204
0.391,-31.648,-28.523,11.722,21.099,-24.225,-16.801,-27.741,-3.907,8.596,-17.973,-75.018,-25.006,-18.755,-59.389,14.066,-23.443,-52.747,29.304,24.225,-7.033,-10.159,-59.389
22.271,-26.569,-17.192,18.755,46.496,-24.615,-8.596,-15.629,27.35,18.755,-12.503,-53.529,0.781,-2.735,-50.012,31.648,-16.02,-46.105,17.973,12.894,3.126,-1.954,-50.012
17.973,-22.662,-12.503,16.41,43.761,-21.88,-0.391,-21.49,49.231,25.788,-0.391,-41.416,33.211,4.298,-61.734,57.045,-4.298,-36.728,13.284,16.02,3.126,3.516,-61.734
20.708,-15.629,0,25.006,48.059,-16.801,7.033,-7.033,53.919,33.211,13.284,-37.9,47.277,-12.112,-35.946,64.86,-3.126,-27.741,0.781,6.252,9.377,-13.675,-35.946
2.344,-13.675,3.126,29.304,19.536,-7.424,7.814,1.563,37.509,39.463,18.364,-30.476,29.304,-10.94,-24.225,71.893,-2.735,-23.443,-2.344,0,10.549,-16.41,-24.225
35.946,-10.159,-1.563,25.397,50.012,0.391,8.987,-8.987,12.112,40.244,23.053,-17.192,15.629,-26.569,-18.364,89.084,-2.344,-19.536,2.344,6.252,13.284,-28.913,-18.364
27.35,-3.516,1.172,9.768,40.244,8.596,10.94,-24.615,-8.596,42.198,30.085,-11.722,1.954,-41.026,-12.894,105.104,-7.424,-16.801,-0.391,13.675,1.172,-36.728,-12.894
3.126,1.563,6.252,12.503,14.847,15.238,2.735,-8.987,7.814,46.105,28.523,-5.861,8.987,-20.708,-8.205,99.634,-12.112,-24.615,-5.47,-1.954,9.377,-30.085,-8.205
19.927,5.861,7.424,14.066,30.867,14.457,-0.391,4.298,-18.755,51.575,25.788,3.126,-14.066,-7.033,-10.94,94.945,-5.861,-31.258,-6.642,-17.973,25.397,-23.834,-10.94
7.033,3.516,4.689,13.675,16.02,8.205,8.205,-2.344,-25.006,49.621,23.443,11.722,-16.02,-8.205,-14.457,100.024,3.516,-31.258,-3.907,-16.801,34.383,-25.397,-14.457
-12.503,0.781,16.02,32.821,-2.735,-9.377,17.582,32.039,-4.298,49.231,10.94,39.072,5.079,-2.344,-7.814,101.587,12.112,-35.946,-15.238,-37.9,58.999,-18.755,-7.814
28.913,10.159,14.457,25.397,32.821,-0.391,19.145,28.523,-33.211,51.184,10.94,27.741,-33.211,15.238,-3.907,78.926,24.615,-42.979,-13.675,-53.919,80.098,-17.973,-3.907
-11.331,19.536,11.722,0.391,-0.781,7.033,19.536,-5.47,-46.496,48.059,19.536,2.735,-55.092,17.192,-3.516,66.813,25.006,-43.761,-10.94,-52.357,71.111,-20.708,-3.516
-14.457,20.708,5.47,3.516,7.814,9.768,6.642,-8.596,-38.681,32.821,27.741,4.298,-52.357,-3.907,-8.205,92.601,6.642,-48.059,-4.689,-29.304,33.602,-34.774,-8.205
9.377,15.629,-0.391,0,38.291,10.549,-5.079,-18.755,39.072,21.88,31.648,-0.781,18.755,-12.112,-7.033,93.773,-1.954,-55.873,1.172,-22.662,25.788,-42.589,-7.033
16.41,9.377,-9.377,5.861,50.403,6.642,-12.503,-20.708,74.628,14.457,33.211,9.377,56.264,-22.662,0,100.024,-1.954,-57.827,10.159,-14.066,13.675,-42.979,0
34.383,3.126,-14.066,12.112,76.19,-5.079,-16.02,-17.582,82.833,5.47,28.913,15.629,66.813,-28.132,-5.47,100.415,-6.252,-59.389,14.847,-15.238,24.225,-46.105,-5.47
83.223,8.987,-21.88,13.284,119.56,-6.642,-15.238,-12.503,106.667,3.907,28.523,15.238,88.303,-22.662,5.47,83.223,1.172,-59.78,22.662,-15.629,8.987,-40.244,5.47
77.363,9.377,-32.43,7.424,107.448,-3.126,-16.02,-24.225,57.436,0,31.258,16.41,51.966,-31.258,3.907,82.833,5.861,-58.999,33.211,-12.503,14.066,-47.277,3.907
45.324,2.735,-39.853,5.079,71.502,-5.861,-18.755,-31.258,32.43,-6.252,35.165,25.788,27.741,-39.072,0,99.634,-1.172,-58.999,40.635,-4.298,-0.781,-51.966,0
37.9,-8.205,-50.012,9.768,53.529,-10.159,-25.006,-27.741,28.523,-23.053,34.383,16.801,17.192,-44.151,2.344,83.223,-9.377,-66.032,50.794,0.391,-1.563,-57.827,2.344
8.205,-21.88,-58.608,11.722,9.768,-12.503,-28.132,-28.132,47.668,-28.132,38.291,8.205,30.085,-38.291,5.47,68.767,-10.549,-66.032,59.389,0.391,4.298,-60.952,5.47
-0.391,-29.304,-57.045,7.033,-7.033,-7.814,-21.49,-41.026,56.264,-26.569,46.105,14.457,50.794,-50.403,8.987,81.27,-2.344,-55.482,57.827,11.722,-0.391,-67.595,8.987
43.37,-17.192,-59.389,9.768,28.913,5.47,-16.801,-41.026,44.933,-21.49,53.919,30.476,49.621,-55.873,17.582,96.899,6.252,-40.635,60.171,19.536,-26.569,-62.125,17.582
92.601,-4.689,-62.125,19.927,71.893,12.894,-16.02,-21.49,48.84,-19.145,53.138,44.151,46.886,-34.774,27.35,87.912,9.768,-35.165,62.906,-1.172,-16.801,-53.138,27.35
77.363,-3.516,-60.952,27.741,50.794,6.252,-12.894,-3.907,53.138,-17.973,47.277,58.608,50.794,-21.88,28.913,83.614,8.987,-32.43,61.734,-17.192,0.391,-51.184,28.913
65.25,-22.662,-60.171,51.184,35.946,-10.94,-8.987,17.973,-4.689,-25.788,33.602,89.866,2.735,-27.741,20.317,98.071,-3.126,-29.695,60.952,-18.364,23.053,-52.357,20.317
66.032,-36.337,-56.654,52.357,36.337,-25.006,-5.47,19.927,-10.159,-31.648,26.178,85.568,-3.516,-19.536,15.238,78.144,-17.582,-33.602,57.436,-18.364,43.37,-53.138,15.238
3.516,-34.774,-52.357,29.695,-27.741,-28.913,-2.735,6.252,-12.894,-31.258,35.946,59.78,-13.284,-19.536,26.178,59.389,-21.099,-35.556,53.138,-30.476,44.151,-60.952,26.178
23.834,-28.523,-60.171,16.02,-7.814,-12.894,-15.629,-10.549,-5.47,-35.556,46.886,55.873,-2.735,-42.589,31.258,76.581,-21.49,-28.132,60.952,-12.894,-1.563,-69.939,31.258
48.059,-12.503,-63.687,8.987,18.755,-5.079,-17.582,-12.894,21.49,-30.867,54.31,43.761,16.801,-41.026,41.026,72.674,-21.099,-27.35,64.469,-7.814,-33.602,-69.548,41.026
69.158,-1.172,-70.72,5.47,39.853,-4.689,-22.662,-7.814,48.84,-28.523,52.747,42.198,40.635,-42.198,42.589,75.409,-21.49,-28.132,71.502,-12.894,-45.324,-68.767,42.589
71.111,-8.987,-67.985,8.205,41.416,-6.642,-31.648,0.781,31.648,-35.556,39.853,57.436,25.397,-55.092,33.993,88.303,-28.132,-30.867,68.767,5.861,-55.092,-69.939,33.993
64.469,-19.536,-47.668,9.768,44.933,-10.94,-31.258,5.079,17.192,-39.463,28.132,49.621,10.549,-51.966,25.788,71.893,-39.853,-32.43,48.449,13.675,-21.88,-70.33,25.788
68.376,-18.364,-44.151,6.642,53.138,-17.973,-30.476,8.596,32.43,-44.151,23.443,38.681,12.894,-42.589,26.569,53.919,-49.231,-27.741,44.933,5.47,-9.768,-62.125,26.569
47.277,-21.49,-42.979,1.172,34.774,-21.49,-31.258,2.735,41.416,-49.621,15.629,46.105,20.317,-55.092,24.615,63.687,-57.827,-22.662,43.761,8.205,-6.252,-62.125,24.615
70.33,-19.536,-46.105,1.954,61.734,-26.96,-30.476,3.516,62.515,-51.966,8.205,51.575,44.151,-59.389,18.364,67.204,-62.906,-18.755,46.886,6.252,2.735,-58.217,18.364
53.919,-10.94,-54.701,-2.735,45.324,-31.648,-33.602,5.079,87.521,-49.231,4.298,24.225,53.529,-44.933,16.41,41.416,-66.032,-24.225,55.482,-6.252,1.172,-53.138,16.41
51.575,-3.516,-54.31,-15.629,45.714,-26.96,-39.463,-0.781,55.873,-51.184,-0.391,4.689,19.536,-48.84,11.722,25.788,-68.767,-29.695,55.092,-8.205,5.47,-57.045,11.722
32.821,-9.768,-57.436,-17.192,26.96,-29.304,-42.198,-7.033,50.012,-51.966,-10.159,11.331,24.615,-62.906,1.954,33.602,-75.409,-32.43,58.217,2.344,2.735,-63.297,1.954
21.099,-12.503,-48.059,-17.973,19.145,-32.039,-39.072,-5.47,61.343,-48.84,-17.582,11.722,37.118,-54.701,-1.954,27.35,-77.753,-34.383,48.84,-4.298,19.145,-56.264,-1.954
7.814,-15.238,-42.198,-25.788,2.344,-38.291,-43.37,3.126,42.979,-47.277,-30.867,5.861,11.331,-34.383,-2.344,-3.126,-82.442,-39.463,42.979,-27.35,43.761,-44.151,-2.344
-21.099,-16.41,-46.496,-18.755,-27.35,-57.827,-44.933,26.178,39.463,-45.714,-54.31,16.02,4.689,-14.457,-7.033,-26.569,-88.694,-43.37,47.277,-55.092,70.72,-30.476,-7.033
-17.192,-12.894,-33.211,-31.258,-17.973,-60.562,-32.43,15.629,51.575,-37.9,-51.966,-3.126,22.662,1.172,-16.801,-47.668,-82.051,-37.509,33.993,-60.171,87.131,-17.192,-16.801
-11.722,-3.516,-29.304,-61.734,-12.894,-48.84,-32.43,-12.503,32.039,-33.602,-45.324,-42.198,11.722,-5.079,-16.801,-78.926,-75.018,-32.43,30.085,-53.138,84.396,-27.741,-16.801
8.205,3.126,-34.383,-73.455,13.675,-36.337,-48.84,-25.006,27.35,-42.589,-42.979,-45.324,11.331,-20.708,-22.662,-71.502,-82.442,-33.211,35.165,-35.556,52.747,-32.039,-22.662
10.159,7.033,-28.523,-84.396,21.49,-27.741,-50.403,-37.118,39.072,-42.198,-42.589,-58.608,28.913,-25.788,-28.913,-78.535,-81.661,-28.913,29.304,-19.536,34.383,-31.258,-28.913
13.284,10.549,-23.834,-87.131,27.741,-19.927,-51.575,-41.807,24.225,-41.416,-44.542,-77.363,15.238,-28.913,-24.615,-100.415,-78.926,-27.741,24.615,-26.96,43.761,-33.602,-24.615
1.954,19.927,-25.788,-84.005,15.238,-13.675,-52.747,-35.165,34.383,-40.635,-50.012,-74.628,23.053,-22.271,-17.973,-113.309,-79.707,-27.35,26.569,-37.9,39.463,-23.053,-17.973
-0.391,17.582,-23.834,-79.707,13.284,-12.894,-49.621,-36.728,37.9,-34.774,-55.092,-78.144,30.476,-13.284,-28.523,-117.998,-78.535,-25.397,24.615,-38.681,46.496,-13.675,-28.523
-3.907,16.02,-21.099,-78.144,13.284,-7.814,-46.886,-44.542,26.178,-30.867,-51.966,-104.322,10.549,6.252,-36.337,-142.613,-75.409,-23.443,21.88,-45.324,54.701,3.516,-36.337
5.47,17.582,-24.615,-77.363,19.145,-1.954,-50.794,-43.761,6.642,-26.569,-52.357,-116.825,-14.457,15.238,-30.085,-160.586,-71.502,-23.834,25.397,-37.118,45.324,0.391,-30.085
7.033,7.814,-21.88,-71.111,18.755,-5.079,-48.84,-41.416,-30.085,-19.536,-53.919,-102.759,-42.198,19.536,-35.946,-149.255,-64.078,-19.927,22.662,-24.615,41.807,1.563,-35.946
-7.424,-2.344,-5.079,-67.985,6.642,-5.861,-39.463,-43.761,-25.006,-19.536,-51.184,-101.978,-25.788,7.033,-26.569,-153.944,-61.343,-14.847,5.861,-15.238,52.747,3.126,-26.569
-24.615,3.907,-17.582,-66.422,-11.331,-4.298,-44.933,-41.807,7.033,-22.662,-46.886,-114.872,1.954,2.344,-15.238,-167.619,-64.469,-17.973,18.364,-18.364,50.794,-10.94,-15.238
-44.933,-4.298,-24.225,-52.747,-35.556,-6.252,-51.575,-30.867,23.834,-35.946,-48.059,-102.369,17.973,5.079,-41.416,-144.957,-74.628,-18.364,25.006,-21.88,56.654,-6.252,-41.416
-21.49,-17.582,-25.397,-38.291,-7.033,-23.053,-47.277,-25.006,40.635,-44.542,-48.449,-82.833,45.714,14.847,-89.475,-107.448,-76.19,-13.675,26.178,-13.284,59.389,17.192,-89.475
-10.94,-21.88,-37.9,-25.788,6.642,-38.291,-42.589,-21.49,23.443,-28.132,-55.092,-83.223,25.788,10.159,-66.032,-112.918,-70.72,-14.847,38.681,-19.927,73.065,-1.954,-66.032
-11.722,-37.9,-36.728,-13.675,-7.033,-55.092,-45.324,6.642,-69.548,-8.596,-73.846,-64.078,-68.376,26.96,-49.621,-126.203,-63.687,-20.708,37.509,-28.913,91.038,-11.331,-49.621
-30.085,-77.753,1.954,-8.596,-42.979,-63.687,-21.099,13.675,-132.845,-4.689,-48.84,-64.86,-106.276,40.635,-31.258,-155.116,-52.747,-13.675,-1.172,25.397,120.733,-44.542,-31.258
-10.159,-100.415,11.331,-17.582,-53.529,-47.277,-5.47,-8.987,-107.448,-16.801,-18.364,-84.005,-36.337,29.304,-62.125,-157.07,-47.277,-0.391,-10.549,91.038,102.759,-54.701,-62.125
-42.589,-96.899,-48.449,-2.344,-115.653,-35.165,-17.973,-20.708,-124.249,-39.072,-5.079,-72.283,-33.993,9.768,-96.899,-119.56,-62.906,-0.391,49.231,103.932,64.078,-62.125,-96.899
-10.94,-89.084,-8.987,-3.516,-78.144,-16.41,-14.847,-1.954,-78.535,-64.078,8.987,-53.138,23.834,48.449,-181.294,-78.535,-62.125,8.205,9.768,111.355,61.734,-3.907,-181.294
11.331,-51.966,-51.184,0.781,-33.602,-24.225,-23.053,-7.814,-43.37,-57.827,0.391,-57.436,37.509,80.488,-200.44,-75.018,-64.469,11.331,51.966,69.939,28.523,57.436,-200.44
-10.549,-25.788,-41.807,5.861,-17.582,-29.695,-28.132,4.689,-62.515,12.503,-53.529,-75.018,-66.032,50.403,-51.184,-111.355,-60.952,12.894,42.589,2.735,-7.424,51.184,-51.184
-21.49,-6.642,-8.596,7.424,14.066,-30.867,-24.225,13.284,-83.223,31.648,-53.138,-65.25,-81.661,67.985,-48.059,-108.23,-51.575,18.755,9.377,1.172,22.662,49.621,-48.059
-19.145,-66.422,28.523,7.424,-11.331,-31.648,-10.549,6.642,-76.581,34.383,-46.105,-59.78,-62.906,50.012,-44.151,-90.647,-54.701,25.397,-27.741,74.237,12.894,13.675,-44.151
-54.701,-22.662,-30.867,15.238,-66.422,-35.556,-7.033,16.801,-81.661,20.708,-46.496,-63.687,-66.813,11.722,-23.834,-92.601,-61.734,27.741,31.648,2.735,7.814,-2.344,-23.834
-28.523,-25.397,-29.695,13.284,-44.542,-35.556,-10.159,21.49,-80.488,3.126,-36.337,-63.687,-32.43,4.689,-63.297,-86.74,-64.86,27.741,30.476,3.907,37.9,-23.053,-63.297
-22.662,-31.648,-12.503,5.861,-44.542,-37.509,4.298,16.801,-39.072,-16.41,-28.913,-53.138,18.364,5.861,-96.899,-66.813,-62.125,34.774,13.284,20.708,53.138,-26.178,-96.899
-10.549,-25.397,-16.801,1.172,-30.085,-37.9,10.159,6.642,-53.138,-7.814,-28.913,-61.734,-2.735,-8.987,-56.264,-84.005,-55.873,39.072,17.582,39.463,12.503,-33.993,-56.264
-7.814,-39.853,14.066,7.424,-23.053,-20.708,3.907,14.847,-104.713,5.861,-39.463,-78.144,-76.19,37.9,-73.455,-105.495,-52.747,37.118,-13.284,107.057,-32.039,-3.516,-73.455
1.172,-28.132,12.112,0.781,-39.072,-1.563,7.033,19.927,-116.044,-8.596,-41.026,-75.409,-69.548,23.834,-99.243,-97.289,-50.012,38.291,-11.331,103.15,-12.894,-29.304,-99.243
-33.993,-42.589,13.675,0.391,-99.634,3.907,13.675,18.755,-159.414,-3.126,-32.821,-56.264,-88.303,57.436,-127.766,-94.164,-44.542,42.979,-12.894,97.68,-21.88,20.317,-127.766
-41.807,-39.463,-8.205,8.987,-101.587,-25.006,8.987,36.337,-89.084,-8.596,-58.999,-20.317,-14.457,33.602,-113.309,-83.614,-48.84,33.602,8.987,17.973,3.907,44.542,-113.309
-15.238,-33.211,3.126,-6.252,-34.774,-54.31,7.814,28.523,-59.389,-19.927,-55.092,-27.741,32.039,-21.099,-67.204,-107.448,-44.933,27.741,-2.344,-32.821,88.303,-21.099,-67.204
-7.033,-51.575,10.159,-25.788,-30.476,-58.217,15.238,-0.391,-66.032,-30.867,-40.244,-28.523,7.033,55.482,-127.766,-101.978,-35.165,30.085,-9.377,-28.132,71.893,63.297,-127.766
-4.689,-11.722,-32.43,-16.02,-18.755,-39.072,8.596,-16.02,-70.33,-14.457,-53.919,-65.641,-19.536,51.184,-132.454,-105.885,-34.383,33.993,33.211,-12.503,6.642,69.548,-132.454
41.807,-8.987,-34.383,-23.053,10.159,-13.675,7.424,-28.913,-111.355,-42.979,-45.324,-74.237,-67.204,28.913,-154.335,-83.223,-37.118,37.509,35.165,30.476,-14.066,32.039,-154.335
-7.424,5.861,-46.886,-32.43,-42.198,10.159,-4.298,-44.933,-113.309,-35.556,-50.794,-70.72,-67.595,56.264,-202.002,-59.389,-39.072,42.979,47.668,14.457,-23.053,70.33,-202.002
-50.012,1.954,-23.834,-32.039,-73.846,10.159,-5.47,-35.556,-120.342,-35.556,-52.747,-56.264,-61.343,-17.973,-125.031,-62.125,-42.589,45.324,24.615,15.629,-15.238,3.516,-125.031
-43.761,-29.304,8.205,-22.271,-52.357,5.079,-8.596,-31.648,-89.475,-58.217,-50.403,-49.231,-23.834,-41.807,-100.806,-82.442,-45.324,41.807,-7.424,62.515,12.112,-22.662,-100.806
-25.397,-16.02,-12.894,-37.118,-49.231,-0.781,-3.126,-38.681,-114.09,-60.952,-48.059,-53.529,-46.496,-64.078,-85.568,-81.661,-40.244,42.979,13.675,8.596,42.589,-57.827,-85.568
-17.192,-28.913,-8.596,-29.695,-60.562,7.814,-0.391,-32.43,-139.096,-60.171,-46.886,-35.946,-61.734,-79.707,-85.568,-56.654,-34.383,46.105,9.377,32.039,24.225,-73.065,-85.568
-46.105,18.364,-24.225,-21.099,-78.144,16.801,3.516,-15.629,-155.116,-64.078,-47.277,-44.151,-81.661,-46.886,-114.09,-68.376,-33.993,44.151,25.006,-20.708,59.78,-47.277,-114.09
-20.708,16.41,-26.569,-25.397,-71.502,22.271,3.907,-11.331,-174.652,-59.389,-40.635,-34.774,-112.137,-28.523,-118.779,-50.794,-32.821,41.807,27.35,-43.761,63.687,-46.886,-118.779
-78.535,16.801,-25.006,-19.145,-119.17,23.443,6.252,-17.192,-158.632,-50.794,-35.165,-27.35,-62.125,-64.078,-103.15,-43.761,-28.132,43.37,25.788,-21.099,35.165,-41.026,-103.15
-100.415,26.569,-32.039,-14.847,-117.607,23.053,-0.391,-26.96,-145.739,-50.012,-34.383,-16.801,-38.681,-73.846,-103.541,-32.43,-27.35,37.509,32.821,-28.132,44.542,-34.774,-103.541
-35.165,1.172,-25.397,-8.596,-63.687,17.192,-5.079,-17.192,-178.168,-55.092,-39.853,-23.834,-78.535,-74.237,-97.68,-47.668,-24.615,24.225,26.178,-5.079,42.589,-45.324,-97.68
-32.039,-10.549,-33.602,-5.47,-69.939,7.814,-4.689,-16.02,-194.969,-51.966,-46.886,-19.927,-88.303,-89.475,-91.038,-45.714,-15.629,21.49,34.383,-13.284,60.171,-64.469,-91.038
-19.927,-19.536,-13.284,10.94,-54.31,-5.079,9.377,6.642,-174.652,-48.059,-63.687,-5.079,-55.092,-66.032,-131.673,-39.463,-6.642,23.834,14.066,-27.35,114.872,-46.496,-131.673
-40.635,-28.913,-0.391,12.503,-79.707,-13.284,21.49,13.284,-175.824,-40.244,-59.78,-14.457,-57.827,-30.476,-146.129,-57.045,-0.391,20.708,1.172,-23.834,137.143,-31.648,-146.129
-73.065,-32.43,4.298,-0.781,-113.309,-7.814,23.834,-5.079,-188.718,-38.291,-53.138,-32.039,-74.628,-47.277,-125.421,-66.032,-0.391,23.834,-3.516,-6.252,125.812,-50.012,-125.421
-126.203,-24.615,-1.563,-2.735,-156.288,-0.781,16.02,-15.238,-180.904,-30.867,-41.416,-29.304,-64.86,-70.33,-101.978,-46.496,-1.954,26.569,2.344,10.159,80.098,-57.045,-101.978
-82.442,-7.424,-6.252,-3.516,-105.104,8.596,17.192,-21.099,-199.267,-31.648,-29.695,-43.37,-89.475,-78.144,-90.647,-47.277,-1.563,25.788,7.033,17.582,56.654,-59.78,-90.647
-42.589,-16.41,-7.814,3.516,-72.283,16.02,15.238,-23.443,-194.969,-21.099,-28.913,-44.151,-94.164,-110.574,-49.621,-35.165,1.172,25.397,8.596,35.556,32.039,-93.773,-49.621
-48.84,-22.662,-3.126,8.596,-72.674,7.424,18.364,-18.755,-180.513,-17.582,-29.695,-33.993,-69.548,-93.382,-87.912,-11.722,1.954,19.927,3.907,20.317,64.86,-76.19,-87.912
-9.768,-21.099,1.563,19.536,-34.383,7.424,25.006,-8.205,-117.216,-16.801,-29.304,-44.542,-7.814,-61.343,-123.077,-16.41,6.642,15.629,-0.781,15.629,89.475,-57.436,-123.077
-30.867,-22.271,6.252,18.755,-55.092,4.689,28.913,-7.424,-147.302,-16.02,-25.006,-43.37,-45.714,-60.952,-116.825,-8.596,5.861,13.284,-5.47,19.927,95.726,-73.455,-116.825
-62.515,-31.648,13.675,20.708,-84.396,1.954,32.039,-9.377,-171.526,-15.238,-19.536,-35.946,-69.548,-66.813,-107.448,-0.391,4.689,16.41,-12.894,25.397,92.991,-72.674,-107.448
-38.291,-28.523,23.053,29.695,-63.297,8.987,39.853,0,-173.871,-7.424,-13.675,-19.927,-62.125,-82.442,-89.475,18.755,14.066,21.88,-22.271,35.165,83.223,-88.694,-89.475
-55.873,-23.834,34.774,28.913,-80.488,14.066,44.151,5.47,-183.248,1.563,-6.642,-36.728,-78.926,-80.879,-64.86,-1.172,18.755,23.443,-33.993,36.337,61.343,-83.223,-64.86
-71.111,-16.801,30.085,33.211,-90.647,18.364,43.761,3.516,-154.725,5.861,1.563,-42.589,-54.701,-78.144,-55.873,-0.781,18.755,23.443,-29.304,15.629,67.204,-76.972,-55.873
-59.389,-29.695,25.397,42.979,-78.144,14.847,46.496,-3.907,-127.375,8.987,6.252,-30.476,-7.033,-94.554,-58.217,17.973,23.443,24.615,-24.615,40.635,73.846,-98.071,-58.217
-86.74,-19.927,16.02,51.966,-96.899,6.642,48.84,1.172,-136.361,7.814,8.987,-17.192,-11.722,-81.661,-74.628,32.43,24.615,21.099,-15.238,24.225,72.674,-67.204,-74.628
-75.018,-19.536,13.675,60.952,-74.628,-4.298,45.714,12.112,-130.501,10.159,-1.172,-16.02,-27.741,-71.111,-55.092,16.41,22.271,12.894,-12.894,2.735,100.806,-66.813,-55.092
-72.283,-37.509,19.145,72.283,-72.283,-20.317,42.589,31.648,-141.832,10.549,-19.145,6.252,-47.668,-58.999,-54.701,17.582,21.88,3.516,-18.364,-5.079,137.924,-72.674,-54.701
-97.289,-29.304,36.337,77.363,-91.819,-16.41,52.357,42.198,-137.534,13.675,-13.284,-4.298,-37.509,-68.767,-41.416,5.861,25.788,4.298,-35.556,-14.066,159.023,-81.661,-41.416
-80.098,-25.397,26.569,59.78,-77.753,-7.033,51.966,12.894,-110.183,14.457,-0.391,-41.026,-14.066,-67.204,-39.463,-16.41,31.258,1.954,-25.788,-4.298,165.275,-93.382,-39.463
-72.283,-23.443,15.238,50.794,-75.409,12.112,35.556,-2.735,-81.27,0.391,10.549,-33.602,22.271,-105.104,-30.476,9.377,24.615,-4.298,-14.457,21.88,146.911,-128.938,-30.476
-105.885,-28.132,5.47,48.449,-113.309,14.457,28.913,-12.112,-86.74,-3.907,24.615,-33.602,26.178,-119.56,-25.006,18.755,23.834,-4.298,-4.689,45.324,129.328,-148.083,-25.006
-69.158,-20.317,0.391,41.807,-79.707,18.755,26.569,-14.847,-109.792,-0.781,29.304,-37.509,-9.768,-100.415,-27.741,19.927,21.88,-3.907,0.391,48.84,94.554,-120.733,-27.741
-57.436,-17.192,7.814,41.026,-62.515,16.41,24.615,-4.689,-86.74,1.954,30.476,-16.02,2.735,-100.024,-9.377,35.946,25.006,-7.424,-7.033,49.231,80.879,-121.514,-9.377
-20.708,-27.35,18.755,46.886,-30.085,12.894,30.085,4.689,-96.508,6.642,38.291,-2.735,1.954,-93.382,-6.252,43.761,30.476,-4.689,-17.973,53.138,77.753,-109.011,-6.252
39.072,-12.112,7.814,49.621,23.834,18.755,34.383,6.642,-96.117,8.987,48.059,-21.49,1.172,-82.051,-3.907,23.834,36.337,-3.516,-7.033,33.602,86.74,-101.978,-3.907
10.94,-16.41,5.079,50.012,-10.549,21.88,32.43,5.47,-75.018,3.126,52.747,-27.35,27.741,-88.694,2.344,11.722,35.165,-5.861,-4.298,32.039,100.415,-110.574,2.344
-35.946,-30.476,-3.126,55.873,-67.595,15.629,32.039,3.516,-37.509,-5.079,54.701,-5.861,68.376,-80.879,-10.94,29.304,31.258,-1.172,3.907,39.853,98.462,-96.508,-10.94
-26.569,-25.006,-5.47,50.403,-61.734,20.317,37.118,-4.298,-46.496,-11.722,57.045,-3.907,61.343,-117.998,19.536,30.085,26.96,0,6.252,39.853,111.355,-131.673,19.536
-91.429,-17.192,-7.033,47.668,-115.263,23.443,27.35,-5.079,-60.562,-15.238,58.217,-19.145,29.695,-114.09,35.165,10.94,21.49,-7.033,7.814,39.072,98.852,-125.812,35.165
-50.794,-14.847,-14.066,49.621,-67.985,17.973,17.973,0.391,-57.436,-16.41,53.529,-16.02,26.569,-112.137,41.416,7.033,23.053,-16.02,14.847,36.337,89.866,-117.607,41.416
1.563,-16.41,-22.271,55.092,-11.722,12.503,20.708,-4.689,-73.455,-21.49,47.277,-10.549,20.317,-128.938,43.37,5.47,24.615,-24.225,23.053,41.416,110.574,-123.468,43.37
-1.563,-19.145,-16.801,58.608,-15.629,2.735,26.569,4.689,-100.415,-8.987,43.37,-8.596,3.516,-112.918,36.337,-2.344,32.039,-30.476,17.582,32.43,127.766,-109.402,36.337
-60.952,-23.834,-21.49,62.125,-72.674,-21.099,19.145,28.523,-53.529,-14.457,21.49,9.768,30.476,-81.27,33.602,-20.317,29.695,-51.575,22.271,7.033,145.348,-85.958,33.602
-85.958,-21.49,-9.377,53.919,-93.382,-33.211,30.476,31.258,-30.085,-17.973,24.225,9.377,36.337,-61.734,43.37,-32.821,27.741,-57.436,10.159,-6.642,169.963,-83.614,43.37
-93.382,-9.377,-6.642,37.509,-98.462,-17.582,30.476,12.112,-18.364,-15.238,41.416,-17.973,50.403,-73.065,55.482,-44.151,30.867,-54.31,7.424,5.079,143.394,-92.991,55.482
-64.86,-7.424,-21.88,39.072,-65.641,-8.987,11.722,6.642,19.536,-21.099,48.449,-12.112,91.429,-87.912,59.78,-28.523,17.582,-60.562,22.662,22.271,105.495,-95.726,59.78
7.033,-5.47,-28.523,36.337,7.033,1.172,1.172,-2.344,16.41,-27.35,53.138,-7.424,94.164,-101.197,60.171,-19.145,12.894,-60.171,29.304,32.43,98.462,-101.587,60.171
50.403,-3.126,-38.681,36.728,45.714,10.159,-3.516,-8.205,9.377,-27.741,55.482,-10.94,99.634,-114.09,59.389,-19.145,12.894,-54.701,39.463,42.589,89.475,-109.011,59.389
10.94,-1.172,-48.449,40.635,7.814,3.907,-8.987,-1.563,14.847,-32.039,47.668,-4.298,102.759,-113.7,55.092,-18.364,8.205,-57.827,49.231,37.509,89.475,-106.667,55.092
-7.033,-1.954,-40.244,37.9,-12.503,1.563,-5.47,4.298,-0.391,-35.946,44.542,6.642,80.098,-109.792,58.608,-14.847,9.377,-58.217,41.026,28.913,100.806,-103.15,58.608
-21.88,7.033,-37.118,35.165,-28.913,7.814,-1.954,5.079,-1.563,-36.337,46.496,10.159,82.442,-120.342,61.343,-5.079,10.549,-54.701,37.9,29.695,93.773,-105.495,61.343
-39.463,8.987,-33.602,37.118,-50.012,11.722,-4.298,14.457,19.536,-40.244,45.324,0.391,96.508,-117.216,58.999,-13.284,5.079,-59.389,34.383,23.834,99.634,-110.183,58.999
-25.006,7.033,-33.602,40.244,-39.463,11.722,-8.987,24.615,25.006,-46.105,41.416,-4.298,95.726,-114.872,57.436,-23.053,-1.954,-64.86,34.383,14.847,110.965,-112.527,57.436
32.821,-3.126,-30.867,35.946,5.47,15.629,-8.205,19.927,31.258,-45.324,44.151,0.391,111.746,-127.375,58.999,-13.284,0.781,-61.343,31.648,20.317,102.759,-114.872,58.999
-8.205,-1.563,-36.337,29.695,-30.476,14.847,-8.596,6.642,43.761,-46.496,50.403,-3.126,128.156,-138.706,60.952,-6.252,-1.563,-60.952,37.118,26.96,90.256,-121.123,60.952
-13.284,-4.689,-39.853,32.821,-29.695,8.596,-18.364,12.112,46.886,-51.184,48.84,-3.516,123.077,-140.269,68.767,-10.94,-12.894,-70.33,40.635,16.41,93.382,-124.64,68.767
28.523,0.391,-42.979,40.244,16.41,5.47,-24.225,27.35,32.821,-51.184,42.589,3.907,100.415,-139.096,81.27,-14.066,-14.066,-74.237,43.761,3.516,86.74,-117.607,81.27
-5.079,-0.391,-42.198,43.761,-8.205,-11.722,-16.801,32.039,24.615,-40.244,36.728,9.377,89.866,-129.328,80.879,-10.549,-17.192,-73.455,42.979,4.689,86.349,-116.435,80.879
0.391,-1.563,-38.681,63.687,0.391,-26.96,-11.722,60.562,37.509,-35.946,17.582,34.383,96.508,-114.872,76.581,-5.47,-19.536,-79.316,39.463,-10.549,120.342,-113.309,76.581
0.781,-1.563,-25.788,53.138,-2.344,-28.523,-13.284,70.33,42.198,-34.774,10.94,29.304,93.382,-108.62,83.223,-20.317,-14.066,-85.958,26.569,-34.383,143.004,-106.276,83.223
-30.476,10.94,-23.053,27.35,-35.556,-16.801,-7.814,44.933,58.217,-27.35,25.397,12.112,104.713,-108.23,94.554,-23.053,-2.735,-79.707,23.834,-32.039,126.593,-106.276,94.554
-28.523,18.364,-37.9,26.569,-28.132,-3.126,-20.708,28.913,82.833,-37.118,37.9,15.629,133.236,-136.361,90.256,10.94,-14.066,-78.926,38.681,-7.814,98.071,-126.984,90.256
30.476,10.549,-35.165,10.549,28.132,6.252,-30.867,11.722,90.647,-46.105,41.026,13.284,147.692,-154.725,76.581,29.304,-20.317,-82.833,35.946,-1.563,92.991,-130.501,76.581
41.807,10.94,-42.198,11.722,44.542,7.424,-37.509,7.814,86.349,-43.37,43.37,21.88,137.534,-146.911,70.33,46.886,-22.662,-82.051,42.979,14.457,72.674,-131.673,70.33
40.635,-2.344,-39.072,11.722,40.635,2.735,-43.37,8.987,79.316,-38.291,39.072,22.271,123.077,-132.454,59.78,51.184,-28.523,-83.223,39.853,17.582,84.786,-141.832,59.78
32.821,-1.172,-23.834,2.735,33.993,1.172,-44.151,18.755,84.005,-33.993,33.602,16.41,123.468,-137.924,74.628,39.463,-25.397,-85.568,24.615,2.344,85.568,-140.659,74.628
8.596,21.49,-45.324,1.172,12.503,0.391,-45.714,17.582,83.223,-18.364,38.291,19.536,121.514,-138.315,99.243,40.244,-19.145,-83.614,46.105,-13.284,63.687,-137.924,99.243
19.536,5.861,-41.026,-3.907,20.317,-3.907,-48.84,11.722,92.21,-13.284,36.337,23.443,141.832,-165.275,108.23,52.747,-19.927,-83.614,41.807,-3.907,56.264,-145.348,108.23
25.788,5.861,-33.993,-3.126,32.43,-5.861,-52.747,19.927,88.303,-16.41,29.304,5.861,132.845,-166.838,100.806,39.463,-26.96,-91.819,34.774,-3.907,67.204,-141.05,100.806
19.536,14.457,-32.821,-10.549,28.523,-4.298,-54.31,19.536,59.389,-17.973,29.304,-13.675,91.429,-112.527,55.092,21.88,-32.039,-94.554,33.602,-2.344,70.33,-98.071,55.092
35.946,-29.304,10.159,-19.145,36.728,0.391,-51.184,9.768,60.952,-17.582,35.556,-12.503,83.223,-113.7,59.389,35.946,-36.337,-89.084,-9.377,53.529,81.661,-137.143,59.389
30.085,12.894,-36.337,-16.02,32.821,3.516,-52.357,4.689,75.409,-19.927,36.337,-12.112,101.587,-125.031,61.343,40.635,-45.324,-85.568,37.118,29.695,66.032,-134.799,61.343
19.145,22.271,-40.244,-16.02,31.648,-6.642,-57.436,16.41,85.568,-21.49,33.211,-7.814,101.197,-89.475,45.714,30.867,-50.794,-91.429,41.026,0,79.707,-102.369,45.714
22.271,35.165,-70.72,-8.987,33.211,-20.708,-60.562,25.006,83.223,-15.238,25.397,-0.391,80.488,-108.62,89.475,30.476,-49.621,-93.382,71.502,-22.271,69.158,-133.626,89.475
-12.894,23.443,-72.674,5.079,5.47,-48.059,-50.403,36.337,96.899,-5.079,2.344,14.457,109.402,-126.984,91.038,33.993,-45.324,-93.382,73.455,-40.244,99.634,-130.11,91.038
-44.542,13.284,-53.529,8.596,-21.49,-58.217,-42.589,45.324,66.032,-2.344,3.907,3.907,76.19,-106.667,85.568,16.801,-38.681,-95.726,54.31,-47.277,126.593,-121.514,85.568
-40.635,15.629,-38.291,-14.847,-18.755,-44.933,-36.337,21.88,23.834,7.814,19.145,-17.582,30.867,-105.495,109.792,-1.563,-33.602,-85.568,39.072,-32.039,109.402,-131.673,109.792
-19.927,6.642,-40.635,-13.675,-5.079,-30.085,-44.151,10.94,55.482,7.033,38.681,-7.424,56.264,-135.971,144.176,29.695,-40.635,-70.33,41.416,-5.079,93.773,-198.486,144.176
-8.987,22.662,-42.979,-10.549,8.596,-15.238,-42.198,7.814,58.217,-1.954,46.496,-12.894,106.276,-143.394,90.256,35.946,-42.979,-60.171,43.761,-5.861,73.065,-129.719,90.256
-1.172,20.708,-42.979,-10.159,15.238,-6.642,-44.933,1.954,54.701,3.907,48.84,-8.987,67.595,-132.845,118.779,44.933,-38.681,-53.138,43.761,-0.781,28.523,-116.435,118.779
2.344,13.675,-39.853,-1.954,22.271,-5.861,-46.105,3.907,63.687,-0.781,45.714,7.424,89.084,-155.116,110.574,71.111,-37.9,-49.621,40.635,8.987,60.171,-152.772,110.574
-30.085,18.755,-45.324,12.112,-8.596,-9.768,-40.244,13.675,55.873,3.516,38.291,0.391,92.991,-89.084,35.165,58.217,-32.821,-48.449,46.105,2.344,64.469,-66.422,35.165
-25.397,13.284,-54.701,13.675,-7.424,-13.675,-42.198,10.549,7.814,7.814,41.807,-5.47,16.801,-69.939,53.138,51.575,-30.867,-46.886,55.482,-3.126,71.893,-98.852,53.138
-3.126,5.079,-52.747,20.317,12.112,-14.066,-39.853,12.112,12.112,10.549,44.151,13.284,26.96,-92.601,70.33,75.409,-30.867,-39.463,53.529,10.549,65.25,-131.282,70.33
-13.675,10.159,-58.608,29.695,-4.298,-12.503,-32.039,17.582,14.457,16.41,42.198,32.821,56.654,-85.568,33.602,101.587,-29.695,-28.913,59.389,13.675,41.026,-96.899,33.602
-14.847,-1.172,-51.575,30.476,-12.112,-15.238,-31.258,22.271,2.344,6.252,42.979,25.788,9.768,-80.098,51.184,97.289,-30.085,-25.397,52.357,15.238,25.788,-113.309,51.184
-13.284,-9.768,-29.304,19.145,-16.02,-5.47,-29.304,17.973,13.284,-4.689,50.794,21.099,33.993,-124.249,78.535,91.819,-28.523,-17.973,30.085,30.867,8.596,-134.408,78.535
-35.165,-15.629,-31.648,29.304,-44.151,-8.205,-22.662,21.88,-8.205,-9.377,46.496,39.853,26.569,-101.978,28.523,114.872,-30.085,-8.596,32.43,44.542,4.689,-107.839,28.523
-45.714,2.344,-46.886,28.523,-61.734,-7.033,-15.629,23.443,-33.602,-6.252,45.324,47.668,-12.112,-82.442,31.258,116.044,-23.443,-4.298,47.668,24.225,5.47,-110.965,31.258
-55.092,10.94,-39.853,28.132,-76.581,0.391,-14.847,35.556,-37.9,-5.861,38.681,53.529,8.596,-78.926,16.41,101.587,-14.847,-4.298,40.635,-14.457,41.026,-85.958,16.41
-74.628,15.238,-40.244,50.403,-100.806,-2.735,-9.768,65.25,-53.138,4.298,13.675,70.72,-24.615,-31.648,-3.126,95.336,-3.907,-3.907,41.026,-40.635,50.012,-33.602,-3.126
-86.74,19.927,-30.085,37.118,-101.587,-8.987,6.252,44.542,-23.443,1.172,23.834,56.654,17.192,-28.913,-21.099,90.647,7.814,0.781,30.867,-49.621,84.786,-41.807,-21.099
-83.614,23.834,-20.317,20.708,-87.521,2.735,4.689,19.927,-45.324,14.457,33.993,35.946,23.053,-37.9,-29.695,84.396,20.317,11.331,21.099,-28.523,75.8,-40.244,-29.695
-71.893,5.861,-19.145,25.788,-76.581,8.205,-5.47,14.066,-44.542,8.987,32.43,47.668,-12.112,9.377,-53.529,101.978,12.894,12.503,19.927,16.801,25.006,-2.344,-53.529
-68.376,7.424,-23.443,19.927,-64.86,10.159,-10.549,0.391,-58.217,-2.735,45.714,51.966,-10.94,-47.668,-16.41,113.7,9.377,17.582,24.225,25.006,41.807,-74.628,-16.41
-70.72,3.907,-25.788,26.178,-89.475,25.788,-10.549,6.642,-125.812,25.006,55.873,60.171,-60.562,-73.455,31.648,119.17,18.364,25.006,26.569,45.714,28.523,-133.236,31.648
-59.389,-3.126,-34.774,37.509,-101.978,38.291,-11.331,14.457,-108.62,20.317,51.966,80.488,-14.457,-52.357,-25.788,137.924,25.788,26.569,35.556,21.49,30.476,-59.389,-25.788
-53.138,-39.853,-24.615,46.105,-122.686,37.9,-5.079,17.192,-130.501,13.284,60.952,98.071,-25.006,-113.7,16.801,164.884,34.383,32.039,25.397,33.993,38.291,-123.077,16.801
-89.475,-8.205,-34.774,44.933,-146.911,44.542,0.781,11.722,-161.368,33.993,65.641,82.442,-0.391,-145.348,17.582,149.646,42.979,41.026,35.556,33.602,25.006,-114.481,17.582
-111.355,-10.159,-40.244,53.529,-145.739,27.741,-4.298,13.284,-137.143,39.463,53.138,70.33,-27.741,-35.556,-50.403,141.441,44.542,42.198,41.026,7.033,18.364,-2.735,-50.403
-117.216,-19.927,-36.337,67.204,-139.096,8.205,1.172,21.099,-101.197,17.192,41.026,89.475,-22.662,-89.084,1.954,157.46,41.416,45.324,37.118,23.834,15.629,-50.012,1.954
-115.653,0,-32.43,58.999,-117.998,14.847,3.907,8.987,-90.256,31.648,39.072,88.303,-1.954,-82.442,4.298,151.209,45.324,51.966,33.211,26.569,27.35,-49.231,4.298
-107.839,-13.284,-23.834,57.436,-120.733,24.225,-1.563,8.205,-80.879,28.523,43.761,77.753,-12.503,-31.258,-29.695,144.567,47.668,51.184,24.615,35.165,34.383,-24.615,-29.695
-96.117,-9.377,-35.946,57.436,-127.375,31.258,-4.298,15.629,-76.19,12.112,44.151,85.177,-30.867,-27.741,-12.503,137.924,46.886,50.403,36.728,10.94,37.509,-22.271,-12.503
-93.773,-13.284,-34.774,55.482,-144.176,39.463,3.907,12.503,-118.388,17.192,55.482,100.806,-63.297,-2.344,-26.569,148.864,51.184,56.654,35.556,31.258,21.099,-14.457,-26.569
-114.09,-30.085,-32.039,64.86,-158.632,14.066,9.768,21.099,-145.348,21.099,53.919,106.276,-51.575,-20.708,-43.37,153.553,57.436,54.31,32.821,37.9,44.542,-19.536,-43.37
-150.818,3.126,-52.747,75.409,-184.811,-1.563,9.768,51.184,-163.321,15.238,39.853,130.11,-66.813,-17.582,-35.165,144.567,65.641,44.542,53.529,-35.165,111.355,-29.304,-35.165
-146.52,-24.225,-35.165,83.223,-175.043,-19.927,16.801,54.31,-157.46,24.615,32.821,130.891,-27.741,-63.687,-15.629,139.878,75.409,46.496,35.946,-36.337,112.918,-19.536,-15.629
-137.143,-41.416,-16.41,68.767,-169.573,-5.861,21.099,26.96,-154.725,44.933,40.635,107.839,-26.569,-99.243,27.35,139.096,87.912,57.827,17.192,17.582,109.792,-101.978,27.35
-139.878,0,-39.853,69.158,-161.758,19.145,14.457,15.629,-128.938,51.184,42.589,101.587,-29.304,-58.217,13.675,141.441,83.223,60.171,40.635,-12.112,77.753,-37.9,13.675
-106.667,-39.072,-31.648,71.111,-162.149,21.49,19.145,11.722,-109.792,46.105,49.231,112.527,-19.536,-32.43,-2.735,155.897,79.707,62.515,32.43,37.509,12.894,2.344,-2.735
-112.918,-36.337,-39.463,67.985,-159.805,12.112,17.192,6.252,-131.673,46.105,56.654,117.607,-37.9,21.099,-59.389,166.056,76.581,59.78,40.244,33.211,32.821,20.708,-59.389
-115.263,-45.324,-23.053,75.409,-152.381,17.973,8.205,15.629,-137.143,49.231,49.621,120.342,-26.569,28.523,-73.846,156.288,78.144,53.529,23.834,53.138,48.059,26.96,-73.846
-119.17,-28.523,-50.403,74.237,-168.791,11.331,11.722,19.145,-123.858,32.039,48.449,137.143,24.225,21.099,-112.137,161.758,78.926,48.84,51.184,17.973,51.184,69.939,-112.137
-130.501,-64.078,-31.258,80.488,-177.778,4.689,5.079,20.317,-130.891,25.397,41.416,148.474,14.457,-17.973,-77.753,167.619,79.316,44.542,32.039,37.118,92.601,1.172,-77.753
-138.706,-12.112,-46.496,75.018,-169.573,25.788,3.907,15.238,-123.858,48.059,30.085,124.249,15.238,-60.952,-9.768,135.189,80.098,42.589,47.277,7.033,73.846,-15.629,-9.768
-151.99,3.516,-58.608,82.833,-182.076,28.132,3.126,25.006,-109.011,38.681,23.443,119.56,-8.205,-53.919,16.41,121.123,77.753,38.291,59.389,-25.788,61.734,2.344,16.41
-138.315,-17.192,-39.463,74.628,-161.368,14.457,7.424,16.02,-126.593,48.059,26.178,131.673,-16.41,-39.463,2.344,135.58,81.27,41.807,40.244,-17.582,56.264,23.053,2.344
-131.673,0.391,-39.853,62.515,-151.6,29.304,8.987,2.735,-149.646,59.389,31.648,128.938,-19.536,-59.78,9.768,142.222,85.568,46.496,40.635,-23.443,42.589,21.88,9.768
-124.249,-5.861,-35.165,60.952,-153.944,35.946,-0.781,12.503,-132.454,56.654,25.397,133.236,-7.424,-37.9,-8.596,139.096,80.879,40.635,35.946,-18.755,35.556,37.509,-8.596
-138.706,-26.178,-20.317,61.734,-164.884,17.973,-3.126,25.788,-120.733,45.714,23.053,146.52,-3.907,-16.801,-26.569,144.176,75.8,36.337,21.099,-14.457,48.449,42.979,-26.569
-137.143,-17.973,-20.317,60.171,-158.242,8.987,7.033,23.053,-109.792,42.198,23.053,153.553,17.973,-32.039,-22.271,148.083,76.581,35.946,21.099,-10.549,52.357,25.006,-22.271
-153.162,-4.689,-27.35,69.939,-164.493,-5.861,12.894,40.244,-78.926,38.681,2.344,175.043,22.662,-16.41,-18.364,151.6,75.8,30.867,28.132,-11.722,69.939,0,-18.364
-150.037,-34.383,-1.954,60.562,-156.288,-27.741,17.192,39.072,-82.051,23.443,4.298,163.321,-29.695,41.026,-31.648,131.673,76.972,25.788,2.735,-4.689,86.349,14.847,-31.648
-159.023,-23.834,-9.377,38.681,-159.414,-35.165,25.788,12.894,-82.442,0.391,19.927,143.004,-8.987,10.94,-35.165,115.263,75.409,27.741,10.159,-9.377,88.303,12.503,-35.165
-133.236,-17.582,-35.946,44.151,-151.209,-15.238,19.145,2.344,-71.502,9.768,23.053,136.752,26.178,-1.954,-52.747,128.938,66.422,32.039,36.728,2.344,65.25,10.94,-52.747
-123.468,-56.654,-20.317,48.449,-149.646,-5.079,5.47,-3.516,-91.819,25.006,24.615,124.64,-8.205,-35.165,1.563,125.812,61.343,31.258,21.099,19.536,37.9,-1.954,1.563
-123.077,-68.767,-25.006,55.092,-169.182,-4.298,12.112,-2.344,-138.706,26.96,36.728,134.017,5.47,-100.806,19.927,135.58,57.827,37.9,25.788,26.178,32.43,-17.192,19.927
-136.361,-29.304,-44.542,48.84,-181.294,23.053,5.079,-10.159,-182.076,57.045,28.913,128.547,-12.112,-108.62,18.364,137.143,60.952,44.933,45.324,-4.298,33.602,-13.284,18.364
-151.99,-19.145,-51.575,45.714,-182.466,20.708,-4.689,-11.331,-147.692,51.966,8.596,110.965,-84.005,-3.126,0.391,112.918,58.999,42.198,52.357,-50.012,27.35,63.687,0.391
-151.99,-31.258,-15.629,35.556,-133.626,-15.238,1.954,-16.801,-92.991,16.02,16.41,117.216,-24.225,-32.039,-5.079,119.951,46.886,46.496,16.41,-11.331,37.118,46.886,-5.079
-148.474,5.47,-52.747,29.304,-128.938,-17.973,4.298,-24.615,-12.894,-0.391,6.252,121.123,30.476,17.192,-69.939,136.361,35.556,50.012,53.529,-56.264,20.708,121.905,-69.939
-156.679,-18.755,-41.807,30.476,-132.063,-33.211,-3.516,-17.973,-0.391,-15.238,7.033,110.183,23.443,19.927,-58.608,116.825,21.88,44.933,42.589,-54.31,17.192,125.421,-58.608
-148.864,-31.258,-28.913,32.821,-130.11,-33.993,-4.689,-8.205,11.722,-20.708,9.768,104.713,33.602,-71.502,36.728,107.448,13.675,44.933,29.695,-40.244,-1.954,45.714,36.728
-158.632,-41.807,-17.582,16.801,-170.745,-12.112,7.033,-26.569,-1.563,-10.94,6.642,105.495,40.635,-96.117,32.039,122.686,11.722,50.794,18.364,-6.252,-25.397,32.821,32.039
-191.062,-12.112,-33.993,14.847,-181.685,-11.722,0.391,-29.695,-46.886,-5.861,3.126,117.998,-5.079,-93.773,27.35,140.659,11.331,44.933,34.774,-45.324,-25.788,45.324,27.35
-174.261,-26.178,-23.053,22.271,-159.023,-24.615,-6.252,-10.94,-64.86,-5.079,-7.814,128.938,-44.542,-74.628,35.165,135.189,7.033,33.211,23.834,-52.747,-15.238,45.714,35.165
-182.466,-30.867,-5.079,17.973,-171.526,-33.993,6.252,-1.954,-98.462,-1.954,-13.284,138.315,-62.906,-44.933,1.563,131.282,9.377,30.085,5.861,-52.747,11.722,64.86,1.563
-189.109,-30.085,-29.304,41.026,-183.639,-64.078,15.238,23.443,-135.58,8.987,-21.88,169.182,-73.065,-25.788,-24.225,145.348,13.284,27.35,30.085,-87.521,21.88,94.554,-24.225
-202.393,-33.211,-23.053,33.602,-193.407,-57.045,5.079,18.364,-114.09,7.424,-22.271,150.427,-71.893,-17.192,-5.47,117.216,16.41,20.317,23.834,-113.309,48.059,92.21,-5.47
-215.287,-30.867,-16.02,7.814,-206.691,-50.012,8.205,-6.642,-99.634,7.033,-13.284,125.812,-54.31,-18.364,-8.596,101.978,14.066,18.755,16.801,-89.084,37.509,85.958,-8.596
-218.022,-26.569,-36.728,9.377,-202.393,-43.761,-5.861,-20.317,-51.575,-8.987,-8.205,127.766,-21.49,-76.581,33.993,121.905,-3.907,17.973,37.509,-71.502,-19.536,58.217,33.993
-228.181,-7.814,-39.853,-3.907,-199.267,-35.165,-12.112,-33.993,-94.164,-14.457,2.735,115.653,-61.734,-89.866,41.416,119.951,-11.722,21.49,40.635,-79.707,-25.397,49.231,41.416
-237.558,-6.252,-34.774,-2.735,-210.989,-31.648,-8.596,-30.867,-86.74,-16.41,4.689,123.858,-49.621,-100.806,47.277,128.547,-15.238,24.615,35.556,-59.78,-44.151,47.277,47.277
-203.956,-14.457,-27.741,3.516,-189.109,-31.258,-1.172,-21.88,-69.548,-14.847,5.47,147.302,-35.165,-103.15,55.482,151.209,-12.894,30.085,28.523,-52.357,-57.827,44.933,55.482
-185.201,-10.549,-27.35,6.252,-171.917,-33.211,2.735,-16.02,-68.767,-18.755,7.424,142.613,-51.575,-78.926,46.496,146.911,-7.814,34.774,28.132,-65.641,-52.747,57.827,46.496
-199.267,-10.94,-26.178,6.252,-184.811,-27.35,1.563,-18.755,-79.316,-14.847,10.94,128.547,-78.535,-47.277,35.165,136.361,-1.563,35.556,26.96,-63.687,-55.092,73.455,35.165
-190.281,-16.41,-44.542,8.205,-191.453,-24.615,4.689,-32.821,-68.376,-9.377,9.768,140.269,-64.469,-47.668,33.602,151.209,0.781,35.165,45.324,-54.701,-67.204,75.409,33.602
-201.221,-6.642,-16.02,-3.907,-196.142,-16.801,13.675,-29.695,-104.713,8.596,13.675,157.46,-89.475,-50.012,46.886,167.619,5.861,38.291,16.801,-58.217,-80.488,83.614,46.886
-234.823,3.907,3.907,7.814,-216.85,-7.033,12.112,-5.861,-129.328,15.238,16.41,141.832,-120.342,-30.085,43.37,152.381,13.284,33.211,-3.126,-67.985,-67.985,94.945,43.37
-223.101,11.722,-1.563,3.907,-205.128,-2.344,8.987,-10.549,-57.045,3.126,14.457,138.315,-65.25,-26.178,40.244,150.037,10.549,27.35,2.344,-69.548,-72.674,102.759,40.244
-178.559,-2.735,0,8.205,-149.646,-15.238,4.298,-12.894,-3.907,-4.689,7.424,147.302,-12.894,-44.151,38.291,164.884,7.424,24.225,0.781,-48.449,-82.051,95.726,38.291
-178.559,-12.503,6.642,19.927,-139.487,-32.039,8.205,0.391,-26.178,-3.126,2.344,149.255,-32.039,-58.217,47.277,166.056,6.642,20.317,-5.861,-46.496,-72.283,84.396,47.277
-186.374,-11.331,-2.735,16.41,-144.957,-44.933,1.563,3.516,-58.217,-0.391,-8.987,143.785,-75.409,-30.085,34.383,146.52,4.298,6.642,3.516,-62.515,-55.092,96.508,34.383
-206.3,-17.582,-1.954,14.457,-166.447,-68.767,3.126,20.708,-115.653,10.159,-30.476,151.6,-131.673,-16.801,40.244,123.077,3.907,-3.516,2.735,-81.661,-35.556,97.68,40.244
-228.962,-15.238,38.291,14.847,-194.579,-60.171,26.96,37.118,-162.93,32.43,-18.755,136.361,-164.493,-20.708,60.952,110.965,14.457,0.391,-37.509,-85.568,-18.755,86.349,60.952
-233.26,-7.033,25.788,-3.126,-201.612,-42.979,18.364,8.596,-103.541,16.801,-14.066,105.495,-119.56,-27.741,49.621,101.978,12.894,0.391,-25.006,-69.939,-36.337,78.144,49.621
-223.492,-5.861,-1.172,1.563,-191.453,-37.509,0.391,0,-44.151,0.781,-14.066,107.448,-66.422,-43.761,37.9,122.295,-0.391,-1.954,1.954,-46.105,-73.846,73.065,37.9
-185.983,-8.205,-7.033,-7.424,-158.632,-26.569,-3.907,-20.317,-7.033,-1.172,-7.033,99.243,-23.443,-73.065,52.357,127.766,-1.563,0.391,7.814,-28.132,-89.866,51.575,52.357
-184.811,5.861,1.172,-8.987,-151.99,-19.145,-2.735,-10.94,16.02,-7.424,-6.642,96.899,-16.41,-67.595,44.542,138.706,-2.344,3.126,-0.391,-35.165,-93.382,46.886,44.542
-170.745,13.675,-8.596,-1.172,-132.845,-21.88,-5.079,-5.861,-1.172,2.344,-8.596,110.574,-33.602,-53.919,50.012,141.441,-0.781,1.172,9.377,-41.807,-92.991,55.092,50.012
-157.07,12.894,5.079,-5.861,-124.64,-17.973,2.735,-4.689,-14.847,12.112,-7.424,119.56,-43.37,-52.747,63.297,141.832,8.205,2.344,-4.298,-43.761,-87.521,53.919,63.297
-160.195,14.457,10.159,-10.549,-128.547,-10.549,2.344,-7.814,-10.159,16.801,-6.642,101.978,-48.84,-37.9,60.171,129.328,15.629,-1.563,-9.377,-41.416,-96.117,60.952,60.171
-148.083,17.192,5.079,-11.331,-112.137,-12.112,-7.033,-4.298,-3.126,14.847,-10.159,93.773,-50.794,-29.304,57.436,117.607,15.629,-12.503,-4.298,-41.026,-103.15,66.422,57.436
-144.957,12.503,5.861,-15.629,-107.448,-17.973,-11.331,-3.516,5.079,17.582,-16.41,105.104,-31.648,-40.244,50.794,132.063,20.317,-21.099,-5.079,-32.039,-105.495,63.297,50.794
-144.176,14.847,0,-18.364,-98.462,-23.053,-11.722,-14.066,32.43,15.238,-18.755,98.462,-4.298,-47.668,42.979,135.58,19.927,-26.178,0.781,-25.788,-101.978,59.78,42.979
-141.832,26.569,-3.126,-30.867,-80.098,-28.132,-18.755,-21.49,17.192,10.549,-17.973,77.753,-33.211,-37.9,43.761,115.263,7.424,-34.774,3.907,-38.291,-92.601,62.125,43.761
-146.129,25.788,-2.344,-32.039,-79.316,-31.648,-28.132,-14.847,7.814,7.033,-22.662,78.926,-46.886,-32.039,37.509,112.527,-3.516,-37.9,3.126,-44.542,-81.27,63.687,37.509
-147.692,17.192,-10.159,-24.615,-83.614,-37.118,-23.834,-19.927,0.391,1.954,-28.132,84.786,-42.589,-42.198,27.35,115.653,-9.377,-34.383,10.94,-33.993,-76.581,63.687,27.35
-144.176,17.582,-4.689,-26.569,-83.223,-37.118,-17.582,-19.145,21.49,1.563,-32.43,85.958,-19.536,-33.211,23.443,106.667,-10.94,-35.946,5.47,-45.324,-53.529,70.72,23.443
-150.037,16.02,10.94,-6.252,-94.554,-45.714,-18.364,30.476,26.96,-0.391,-50.794,112.137,-14.457,-16.41,18.364,100.024,-12.112,-42.979,-10.159,-76.581,-5.861,75.409,18.364
-160.586,10.94,14.847,-6.642,-112.137,-48.059,-9.377,30.085,29.304,1.172,-50.012,107.839,-3.907,-12.894,19.536,85.177,-7.424,-39.853,-14.066,-78.926,20.708,74.628,19.536
-162.54,21.49,17.192,-20.708,-109.402,-37.9,-2.735,6.252,17.973,13.284,-31.258,80.879,-4.689,-10.94,22.271,74.237,-5.47,-30.085,-16.41,-68.767,16.02,69.939,22.271
-150.818,19.145,7.814,-23.834,-102.369,-25.788,-15.238,-3.126,1.954,11.331,-20.317,82.442,-8.596,-30.476,21.88,92.601,-16.02,-26.96,-7.033,-46.496,-12.503,57.045,21.88
-129.328,15.629,0.391,-31.258,-84.396,-21.099,-20.708,-16.41,-17.582,7.424,-13.284,87.131,-21.49,-41.026,21.099,104.322,-18.364,-22.662,0.391,-28.913,-30.085,51.966,21.099
-116.044,23.053,-5.861,-37.118,-71.893,-13.675,-22.271,-27.35,-2.735,9.377,-7.814,80.098,5.079,-46.886,19.145,100.806,-20.317,-19.536,6.642,-20.317,-42.198,48.059,19.145
-110.574,32.821,-12.894,-35.556,-70.72,-12.503,-25.006,-16.801,4.298,-1.563,-12.503,80.879,11.722,-48.059,14.847,91.038,-23.834,-20.708,13.675,-35.165,-25.788,44.542,14.847
-105.104,26.96,-5.861,-41.416,-65.25,-16.41,-26.569,-15.629,19.927,-8.987,-19.145,90.256,32.43,-51.575,10.159,89.475,-28.132,-25.788,6.642,-35.165,-4.689,39.463,10.159
-115.263,31.258,-4.689,-45.324,-71.502,-15.238,-25.397,-19.927,24.225,-14.066,-19.145,90.647,40.635,-60.562,11.722,88.303,-30.085,-25.397,5.47,-32.039,-3.516,35.165,11.722
-123.468,32.039,-8.987,-49.621,-81.27,-16.02,-30.476,-21.49,18.364,-21.88,-25.006,75.018,23.834,-55.873,3.126,74.628,-38.291,-33.993,9.768,-35.165,1.172,30.085,3.126
-112.137,28.913,-16.02,-46.105,-70.72,-19.145,-34.774,-19.145,20.317,-24.615,-32.43,70.33,14.457,-42.979,-4.689,65.641,-42.589,-42.589,16.801,-38.681,6.252,33.602,-4.689
-90.256,30.085,-18.755,-51.184,-49.231,-20.317,-28.523,-30.867,33.211,-19.536,-31.258,73.846,37.509,-50.794,-6.642,75.8,-37.9,-35.946,19.536,-30.085,-3.126,32.821,-6.642
-71.893,33.993,-14.457,-58.999,-30.085,-14.847,-23.834,-41.807,28.132,-18.755,-28.523,69.939,39.463,-60.952,-12.112,83.223,-36.728,-32.821,15.238,-23.053,-7.814,29.695,-12.112
-66.813,33.211,-22.271,-49.621,-24.615,-17.192,-33.993,-28.913,40.635,-28.913,-32.43,70.72,35.556,-54.701,-10.549,79.707,-44.933,-39.072,23.053,-32.039,-7.033,32.43,-10.549
-76.19,30.867,-20.317,-48.449,-28.913,-27.35,-35.946,-20.317,45.714,-35.946,-39.072,76.19,31.648,-63.297,0.391,76.972,-51.184,-40.635,21.099,-40.244,-2.344,27.35,0.391
-79.316,28.132,-17.192,-44.151,-30.085,-37.118,-29.695,-14.847,33.211,-39.463,-46.496,74.237,18.755,-67.204,-5.47,75.409,-56.654,-37.9,17.973,-41.807,10.94,19.536,-5.47
-110.965,16.41,-30.867,-30.476,-62.515,-59.389,-32.039,-0.391,18.755,-42.589,-69.158,88.303,3.907,-62.125,-22.662,75.409,-67.595,-47.277,31.648,-51.575,31.648,24.615,-22.662
-121.514,19.536,-27.741,-41.807,-73.065,-67.204,-26.96,-2.344,23.443,-37.118,-70.72,69.939,3.516,-43.761,-18.755,44.933,-62.906,-54.701,28.523,-75.409,58.608,31.648,-18.755
-96.117,24.225,-33.602,-66.813,-48.059,-57.436,-33.211,-32.039,33.602,-33.602,-63.687,45.324,19.536,-50.403,-23.443,36.337,-57.045,-49.231,34.383,-58.999,40.244,24.615,-23.443
-77.753,17.582,-48.84,-61.343,-30.476,-51.966,-46.886,-39.072,26.569,-40.244,-53.529,42.198,14.066,-68.376,-23.443,51.966,-64.86,-55.482,49.621,-36.337,4.689,16.41,-23.443
-68.767,17.973,-48.059,-61.734,-24.225,-42.198,-52.357,-39.853,21.099,-38.681,-42.198,41.807,7.424,-73.846,-16.02,64.469,-61.734,-56.264,48.84,-33.602,-12.894,14.457,-16.02
-60.952,14.457,-51.184,-60.562,-19.145,-39.463,-55.092,-42.589,-1.563,-30.476,-35.165,49.621,-1.563,-84.005,-12.503,80.098,-61.343,-50.794,51.966,-19.145,-32.43,7.424,-12.503
-64.86,12.894,-50.012,-48.059,-28.523,-37.509,-51.966,-29.695,-18.364,-26.96,-31.258,53.529,-11.331,-82.442,-13.675,83.614,-63.297,-49.231,50.794,-16.41,-31.648,5.861,-13.675
-85.568,17.192,-50.794,-42.198,-57.436,-33.602,-46.105,-22.271,-45.324,-24.225,-26.178,47.277,-37.118,-71.111,-14.847,72.674,-59.78,-44.933,51.575,-26.569,-16.41,8.596,-14.847
-75.018,25.397,-42.979,-49.621,-49.621,-30.085,-36.337,-24.225,-19.536,-20.317,-19.536,55.873,-2.344,-71.502,-12.503,81.661,-57.827,-36.337,43.761,-27.35,-10.94,5.079,-12.503
-53.138,22.271,-44.933,-44.151,-26.96,-26.96,-37.118,-26.96,19.536,-25.397,-18.755,67.985,39.072,-76.972,-17.192,96.899,-59.78,-31.648,45.714,-15.238,-11.331,1.954,-17.192
-42.979,28.913,-47.277,-41.807,-16.02,-30.085,-38.291,-17.192,37.9,-39.853,-22.662,62.906,33.211,-61.343,-19.145,84.786,-62.906,-36.337,48.059,-26.569,-5.079,5.861,-19.145
-52.747,35.946,-44.542,-45.324,-26.569,-28.913,-37.118,-11.722,31.648,-34.383,-22.662,54.31,17.582,-44.933,-17.582,73.846,-62.906,-35.946,45.324,-37.9,0,8.596,-17.582
-60.171,25.788,-40.635,-45.714,-37.509,-20.708,-33.993,-26.178,50.794,-28.132,-19.927,53.919,49.621,-53.919,-25.788,85.958,-57.045,-30.085,41.416,-11.331,-4.689,2.735,-25.788
-67.595,25.006,-44.542,-39.463,-45.714,-17.192,-32.039,-28.913,59.389,-24.225,-20.317,59.389,68.767,-62.125,-32.821,99.243,-53.138,-27.741,45.324,-2.344,-5.861,1.954,-32.821
-70.33,20.317,-37.9,-31.258,-49.231,-18.364,-38.681,-10.549,35.165,-17.192,-29.304,67.985,42.198,-49.231,-34.774,97.68,-51.966,-35.556,38.681,-14.847,8.596,9.377,-34.774
-71.111,14.457,-31.648,-26.178,-46.886,-25.006,-37.118,-4.298,30.476,-9.377,-37.9,75.018,42.198,-41.026,-36.337,92.21,-47.277,-37.118,32.43,-23.834,33.993,14.066,-36.337
-62.906,12.894,-30.085,-6.252,-30.476,-42.979,-28.523,17.973,23.834,-4.298,-53.138,101.978,42.198,-41.416,-40.244,107.057,-41.416,-37.509,30.867,-28.913,41.807,19.536,-40.244
-59.78,18.755,-21.49,-6.252,-26.178,-49.231,-20.317,28.132,-3.516,-1.172,-53.919,95.336,4.689,-26.96,-36.728,94.945,-35.946,-39.072,22.271,-48.059,51.966,24.615,-36.728
-56.264,29.304,-9.377,-29.304,-23.053,-35.556,-13.675,8.596,-5.47,6.642,-39.072,69.158,0.391,-21.099,-29.304,81.661,-23.443,-37.118,10.159,-54.31,53.138,19.536,-29.304
-54.701,31.258,-19.536,-28.913,-22.662,-14.066,-24.615,-8.596,41.807,0,-26.178,69.158,49.621,-44.542,-23.443,103.541,-21.49,-31.648,20.317,-26.96,10.159,8.205,-23.443
-54.31,37.9,-19.145,-35.556,-27.741,-1.954,-25.397,-14.066,57.045,-0.781,-14.847,62.906,61.343,-50.012,-17.582,110.574,-16.801,-31.648,19.927,-26.569,-12.894,5.079,-17.582
-56.264,34.774,-14.847,-39.463,-32.039,12.894,-31.258,-24.615,33.211,0.391,-10.159,66.032,43.761,-56.654,-16.02,119.56,-11.722,-34.774,15.629,-21.099,-16.02,1.563,-16.02
-65.641,35.165,-12.112,-27.35,-35.946,18.755,-33.211,-19.536,26.96,1.563,-10.549,87.131,42.979,-64.078,-13.284,140.269,-6.252,-32.039,12.894,-12.112,-24.225,1.563,-13.284
-53.529,37.9,4.298,-25.397,-21.88,16.41,-25.788,-5.079,21.49,7.424,-10.159,82.833,30.476,-53.919,-8.987,135.189,-1.563,-30.867,-3.516,-21.88,-21.88,3.126,-8.987
-35.946,37.509,11.331,-26.569,-0.391,17.192,-25.006,-5.079,-19.536,12.894,-5.47,69.548,-20.708,-40.635,-3.126,123.077,-0.391,-27.741,-10.549,-25.788,-20.317,3.907,-3.126
-33.993,33.993,12.894,-24.225,4.298,16.801,-23.834,-8.205,4.298,10.159,-4.689,84.005,-1.954,-43.37,0,141.441,0.781,-17.192,-12.112,-17.582,-26.96,2.344,0
-34.774,33.211,13.284,-20.317,9.377,12.503,-19.536,-9.377,33.602,15.629,-5.47,93.382,29.695,-47.277,1.954,153.162,-0.781,-11.331,-12.503,-13.284,-31.648,3.907,1.954
-52.357,38.681,11.722,-24.225,-8.596,19.145,-20.708,-13.675,21.099,21.099,-3.907,74.237,11.722,-35.946,3.126,134.017,0.391,-14.066,-10.94,-23.443,-20.317,4.298,3.126
-62.125,47.668,10.549,-32.821,-14.847,26.569,-22.271,-24.615,29.304,16.801,-2.344,63.297,8.987,-30.867,0.391,127.375,4.689,-13.284,-9.768,-27.35,-14.066,0.781,0.391
-50.794,48.449,12.503,-25.397,-3.126,29.695,-15.629,-24.225,58.217,17.973,-4.689,73.846,44.933,-39.853,-0.391,142.613,6.252,-6.642,-11.722,-17.192,-23.834,0.781,-0.391
-37.509,44.933,4.689,-23.443,1.563,27.741,-13.284,-27.741,37.9,16.801,-9.377,76.581,27.35,-40.244,-8.596,143.394,5.47,-5.079,-3.907,-15.629,-21.099,-0.391,-8.596
-33.993,44.933,5.861,-18.364,-0.391,23.443,-12.894,-12.112,16.41,15.238,-16.41,83.614,-1.563,-22.662,-2.735,128.156,7.424,-3.516,-5.079,-34.774,-5.079,8.596,-2.735
-57.827,41.026,13.675,1.563,-23.053,7.814,-7.424,21.49,14.847,17.582,-33.993,107.839,-10.159,0,-1.563,119.951,9.377,-0.781,-12.894,-58.608,20.708,25.397,-1.563
-62.906,38.681,13.675,-3.126,-31.258,5.079,4.689,8.596,-10.94,30.085,-30.476,96.117,-23.443,3.907,-4.689,109.792,20.708,1.172,-12.894,-57.827,37.509,22.271,-4.689
-62.125,48.449,24.615,-23.053,-32.039,19.145,10.549,-8.987,7.424,39.853,-17.582,70.33,-1.172,5.079,-2.735,99.634,37.118,3.126,-23.834,-55.873,31.258,16.41,-2.735
-50.794,49.231,13.284,-25.397,-18.755,30.085,-3.516,-19.927,8.205,35.165,-10.94,80.098,2.344,-14.847,-1.563,127.766,35.556,1.563,-12.503,-33.211,-7.424,3.907,-1.563
-23.053,44.542,9.377,-30.867,6.642,37.118,-8.987,-34.383,16.41,32.039,-3.907,73.065,10.94,-28.132,-2.735,138.706,35.165,2.344,-8.596,-12.503,-34.774,-4.689,-2.735
-11.331,39.853,3.907,-27.741,17.582,36.728,-15.238,-34.383,16.41,27.741,-1.172,64.469,1.954,-28.132,-4.689,139.878,30.867,0.781,-3.126,-8.596,-47.668,-6.642,-4.689
-7.814,23.834,5.861,-12.894,23.053,29.304,-19.927,-23.053,17.973,25.788,-5.861,80.488,-0.781,-25.788,-3.516,150.818,25.788,-1.954,-5.079,-3.126,-48.84,-3.126,-3.516
-19.145,16.801,4.689,-12.112,11.331,21.099,-16.02,-25.006,10.94,30.867,-7.424,88.694,1.172,-25.788,-7.033,155.897,25.006,-0.781,-3.907,-1.954,-41.026,0,-7.033
-24.615,16.02,0.391,-11.722,3.907,16.801,-13.675,-26.178,-1.172,33.211,-5.47,70.33,-11.722,-17.973,-8.987,137.143,21.49,-1.563,0.391,-10.549,-27.35,0.391,-8.987
-26.569,18.755,-8.987,-11.331,3.516,11.331,-16.41,-25.397,-16.801,32.039,-7.424,64.078,-24.615,-17.582,-9.768,125.031,13.284,-3.516,9.768,-12.894,-24.615,-1.954,-9.768
-25.006,23.443,-4.298,-19.145,9.768,3.907,-12.112,-26.569,-16.41,25.006,-11.331,84.786,-15.629,-31.258,-11.331,142.613,10.94,0.781,5.079,-8.987,-26.178,-4.298,-11.331
-3.516,24.225,0.781,-15.238,39.463,4.298,-7.424,-28.913,12.503,16.02,-10.94,87.521,5.47,-36.337,-10.94,147.692,9.768,3.126,0,-5.47,-20.317,-3.907,-10.94
13.675,30.867,6.642,-19.145,67.204,9.768,-14.066,-29.304,37.9,6.642,-11.331,74.237,11.722,-31.648,-5.079,134.408,6.642,-4.298,-5.861,-6.642,-21.88,-5.47,-5.079
9.377,32.821,9.377,-12.503,66.032,13.675,-21.099,-19.145,55.873,2.735,-16.801,79.707,21.099,-28.913,0,131.673,7.424,-7.814,-8.596,-7.814,-23.053,-3.907,0
-0.781,29.695,4.689,0.391,51.966,12.503,-12.112,-17.973,40.635,5.861,-19.536,84.005,13.675,-31.648,-2.735,133.236,10.94,-6.252,-3.907,-5.861,-15.238,-1.563,-2.735
-5.079,33.993,0.391,0.781,42.979,11.331,-5.47,-18.364,37.509,7.424,-23.443,81.661,14.066,-24.615,-5.079,119.17,16.02,-7.814,0.391,-13.675,-1.954,2.735,-5.079
-21.88,28.132,13.284,6.642,19.536,2.735,-7.814,10.94,16.02,8.205,-42.198,101.978,-8.205,-5.079,-3.907,103.541,18.755,-13.675,-12.503,-37.9,27.35,13.284,-3.907
-19.927,28.523,20.317,2.344,17.192,-0.781,8.596,7.424,-10.549,11.722,-38.681,99.634,-30.476,2.344,0.391,90.256,29.695,-8.596,-19.536,-50.794,52.357,15.629,0.391
-7.424,41.416,21.49,-20.708,25.788,19.927,12.894,-24.615,25.006,20.708,-21.88,76.19,12.112,5.079,-1.563,84.396,41.416,1.172,-20.708,-36.728,31.258,14.457,-1.563
13.675,41.416,17.973,-16.801,44.151,35.946,0,-21.88,28.132,27.35,-10.94,84.396,24.225,-4.689,5.861,103.541,35.556,3.126,-17.192,-21.49,-8.205,14.066,5.861
21.88,41.416,12.112,-16.41,52.747,41.416,-2.735,-31.258,8.987,33.602,-2.344,86.349,17.192,-14.847,11.722,113.309,34.774,6.252,-11.331,-12.503,-21.88,11.722,11.722
21.88,48.449,5.079,-21.88,55.482,41.026,-4.298,-38.291,31.648,32.039,0.781,78.926,34.774,-3.907,1.563,112.527,29.304,8.987,-4.298,-12.112,-35.556,26.178,1.563
26.178,37.9,15.629,-19.927,66.422,37.9,-11.722,-30.867,46.105,32.039,-1.954,76.581,41.026,-12.503,20.708,103.932,22.271,5.861,-14.847,-13.284,-30.867,17.192,20.708
26.96,36.728,16.02,-16.801,72.674,29.304,-8.596,-28.913,48.449,24.615,-5.47,84.396,29.304,-11.331,27.35,109.011,25.397,5.47,-15.238,-18.755,-25.397,19.927,27.35
26.569,39.463,17.582,-24.615,73.455,30.867,-1.954,-42.589,60.562,25.397,-2.735,85.177,35.946,-13.675,25.788,121.123,31.648,7.814,-16.801,-16.02,-27.741,20.317,25.788
18.364,36.337,16.801,-14.066,58.999,37.509,-3.907,-33.211,59.78,33.993,-0.781,75.409,30.476,-12.112,42.198,108.23,32.43,4.298,-16.02,-14.847,-37.509,21.099,42.198
12.112,35.556,16.41,-5.861,48.84,36.728,-2.735,-22.662,42.589,32.821,-1.172,77.363,3.516,-4.689,50.012,102.759,32.039,3.907,-15.629,-24.225,-30.085,23.443,50.012
10.549,39.853,31.258,-9.768,49.621,38.291,9.377,-24.615,76.581,32.039,0.781,84.005,36.337,-5.861,46.886,116.044,33.993,13.675,-30.476,-20.708,-28.913,28.523,46.886
17.582,38.291,33.602,-11.331,56.654,44.933,12.894,-35.946,114.481,35.946,5.861,79.316,80.879,-8.987,47.277,117.998,29.304,21.099,-32.821,-8.205,-36.728,33.211,47.277
13.284,46.496,25.788,-8.987,62.125,40.635,4.689,-30.085,108.23,33.993,3.907,81.27,71.111,-1.563,43.37,114.481,20.708,19.145,-25.006,-21.099,-32.821,39.463,43.37
12.894,48.059,26.178,-3.126,69.548,29.695,3.126,-17.582,71.111,39.853,-0.781,89.475,46.886,1.954,37.509,113.309,20.317,21.49,-25.397,-35.556,-23.053,50.403,37.509
5.079,43.761,17.582,3.907,55.482,26.96,7.424,-18.364,30.085,52.747,-3.907,91.819,30.867,0.391,26.96,111.746,27.741,26.569,-16.801,-34.774,-16.41,57.045,26.96
-22.662,26.178,12.503,23.443,14.066,12.894,10.94,2.735,-2.344,59.78,-18.364,116.825,15.629,-1.172,25.788,114.481,29.304,25.788,-11.722,-51.184,16.41,53.919,25.788
-17.973,27.35,33.602,12.503,15.238,11.722,16.41,11.722,20.708,46.886,-22.271,109.011,10.94,21.099,26.569,95.336,33.993,30.085,-32.821,-71.893,47.668,55.873,26.569
-9.768,40.244,34.774,-8.205,22.662,25.788,21.88,-14.847,80.488,38.291,-14.847,81.27,54.701,28.523,21.88,80.488,37.118,42.198,-33.993,-61.734,51.966,45.714,21.88
5.861,37.509,15.629,-10.94,31.648,33.993,11.722,-29.695,116.825,22.662,-6.252,75.409,86.74,10.159,14.066,97.289,19.145,41.416,-14.847,-34.774,20.708,25.006,14.066
30.085,40.244,5.47,-18.755,68.767,25.006,1.954,-39.463,116.435,12.503,-4.298,67.595,86.74,7.424,0,98.852,10.159,34.774,-4.689,-21.49,11.722,18.364,0
30.476,35.946,-14.457,-17.973,71.893,18.755,-9.377,-47.668,71.111,10.549,-4.298,71.502,59.78,-5.47,-12.112,108.23,7.033,28.132,15.238,-1.954,-5.079,11.722,-12.112
28.913,27.35,-29.695,-13.675,65.25,10.549,-16.801,-45.324,61.734,12.894,-6.252,71.111,59.78,-7.033,-14.847,103.15,3.516,17.582,30.476,4.689,-19.145,12.112,-14.847
20.317,24.225,-27.741,-16.801,58.608,1.172,-21.49,-39.072,44.933,13.284,-10.549,64.469,40.244,10.94,-22.662,84.005,2.735,10.159,28.523,-2.735,-8.987,21.88,-22.662
11.331,23.053,-28.132,-23.443,44.542,1.563,-21.49,-41.416,12.112,13.675,-12.503,71.893,18.755,-6.252,-14.066,87.521,0.781,10.159,28.913,-1.563,-4.689,9.768,-14.066
12.112,17.582,-29.695,-31.648,32.039,3.516,-19.927,-46.496,35.556,8.596,-16.41,80.879,49.231,-23.834,-13.675,97.289,-6.642,9.768,30.476,3.126,-15.238,3.126,-13.675
9.768,14.457,-22.271,-28.132,33.602,-0.781,-26.569,-31.648,39.463,-2.344,-23.443,72.674,39.072,-20.708,-14.847,83.223,-17.582,2.344,23.053,-5.079,-4.689,-1.172,-14.847
-2.735,18.755,-24.615,-29.695,20.317,0.781,-31.258,-28.913,16.02,-8.596,-28.132,62.906,10.549,-21.88,-16.801,71.111,-19.927,-3.907,25.397,-10.94,0.781,-5.47,-16.801
-5.861,16.41,-22.271,-32.039,12.503,8.205,-25.006,-39.853,27.35,-6.252,-23.834,64.469,28.913,-33.211,-18.755,85.177,-16.02,-0.781,23.053,7.424,-25.006,-4.298,-18.755
-5.47,14.066,-15.238,-22.662,17.973,10.159,-21.099,-37.9,40.635,-2.735,-21.49,74.628,35.946,-32.039,-14.847,103.15,-12.112,0.391,16.02,12.503,-44.933,7.424,-14.847
-12.503,13.675,-11.331,-14.066,11.722,3.907,-23.053,-18.364,14.847,4.689,-26.178,85.177,0.781,-14.066,-7.033,99.634,-9.768,-3.516,12.112,-3.126,-42.198,20.708,-7.033
-16.41,6.252,-6.252,-11.331,1.563,-5.47,-18.364,-6.642,5.861,11.722,-30.867,96.117,-12.503,0.391,-0.391,96.508,-9.768,-2.735,7.033,-12.894,-44.542,32.43,-0.391
-19.536,-14.066,-4.298,9.377,-8.987,-26.569,-8.205,15.238,25.397,3.126,-41.807,121.123,-14.847,21.49,-0.391,103.932,-11.331,0.391,5.079,-17.192,-43.761,50.012,-0.391
-23.053,-15.238,-1.563,7.033,-19.145,-32.039,-1.954,19.927,2.344,3.126,-35.556,106.667,-57.436,53.529,3.907,77.753,-4.298,0.391,2.344,-33.602,-32.039,63.297,3.907
-11.722,-5.861,1.172,-17.582,-19.927,-9.768,0.781,-4.298,23.053,10.159,-14.457,88.694,-45.324,60.171,24.615,69.158,5.47,9.768,-0.391,-26.178,-66.813,59.78,24.615
9.377,-7.033,0.391,-18.755,-8.596,9.377,-0.391,-15.629,35.556,9.377,5.079,93.773,-34.774,51.966,37.509,91.038,4.689,21.88,0.391,-5.079,-118.779,57.827,37.509
21.099,-1.172,-1.172,-21.88,-3.516,24.615,-0.781,-23.053,41.026,13.284,21.49,87.912,-26.569,64.469,33.602,94.164,7.033,35.556,1.954,0.391,-142.613,67.595,33.602
33.602,-1.172,1.172,-19.536,-4.298,34.383,-0.391,-16.02,29.304,23.834,32.039,104.322,-21.49,62.125,35.946,114.09,3.516,47.668,-0.391,5.079,-164.884,67.985,35.946
43.37,-13.284,0,-5.861,-5.47,32.43,0.781,-4.689,1.172,28.523,33.602,127.375,-33.993,57.827,34.774,133.626,0,57.045,0.781,14.457,-172.308,67.595,34.774
44.933,-18.755,-4.689,0.391,-8.987,27.35,0,1.954,-7.033,32.43,32.821,118.779,-43.761,91.038,9.768,121.123,-0.391,57.045,5.47,11.722,-163.321,89.084,9.768
51.184,-13.284,-5.47,0.391,-2.735,26.178,-0.781,8.987,-26.96,41.026,33.602,112.137,-69.548,88.694,30.867,110.183,1.954,55.092,6.252,4.689,-165.665,75.409,30.867
57.045,-20.317,1.172,-4.298,4.298,27.35,0.391,0.781,3.126,40.244,33.602,119.951,-46.886,83.223,44.542,117.216,5.079,56.264,-0.391,16.41,-168.791,65.641,44.542
49.621,-21.88,-4.298,-2.735,3.126,19.927,0,-3.126,40.244,35.165,26.96,126.203,-9.377,85.177,31.648,122.686,3.126,54.701,5.079,21.099,-164.493,70.72,31.648
45.714,-17.582,-3.516,-14.457,0.391,18.364,-3.516,-5.861,64.469,29.695,23.834,110.183,3.126,96.899,30.867,97.289,0.781,47.668,4.298,9.768,-149.255,71.111,30.867
41.807,-16.41,-4.298,-16.801,-4.298,21.099,-7.033,-6.642,60.171,23.443,23.834,98.462,-6.642,89.475,41.807,82.442,-4.689,44.542,5.079,12.112,-146.911,61.734,41.807
41.416,-17.973,-8.596,-18.755,-5.47,20.317,-7.033,-13.284,53.138,15.238,15.629,96.508,-5.079,85.568,16.41,85.568,-10.159,42.979,9.377,28.913,-148.864,67.985,16.41
37.118,-22.662,-10.94,-10.94,-10.549,16.02,-8.596,-5.861,43.761,16.41,4.298,99.243,-7.033,83.223,7.814,81.27,-15.238,35.165,11.722,28.523,-135.189,71.111,7.814
20.317,-21.099,-4.298,-11.722,-22.271,7.033,-11.331,8.596,25.397,15.629,-10.549,98.462,-30.476,96.508,2.344,62.515,-19.927,23.443,5.079,9.768,-109.011,81.27,2.344
-7.033,-26.96,-0.781,4.689,-44.933,-17.192,-9.768,41.416,17.973,12.112,-35.556,111.355,-45.324,113.309,-7.033,47.277,-29.695,14.066,1.563,-18.364,-60.952,86.349,-7.033
-12.503,-28.132,-5.47,1.954,-48.059,-24.225,-5.47,34.383,10.549,17.582,-38.681,112.527,-42.589,94.945,4.689,44.933,-23.834,12.112,6.252,-14.457,-67.204,76.581,4.689
-1.563,-21.099,7.814,-26.178,-35.946,-21.099,4.689,10.94,4.689,19.927,-24.615,83.223,-50.012,87.521,18.755,28.132,-21.099,13.675,-7.033,-17.192,-64.469,58.608,18.755
17.973,-19.536,0.781,-35.556,-20.317,-7.033,-7.424,0.391,16.02,8.987,-12.112,89.475,-33.211,55.482,29.304,51.184,-25.788,16.41,0,5.47,-113.7,43.761,29.304
37.118,-14.847,-5.861,-42.589,-4.689,2.735,-11.331,-13.675,24.615,8.596,0.391,86.74,-14.847,57.045,20.708,57.436,-21.49,17.973,6.642,23.053,-145.348,53.919,20.708
45.324,-10.159,-7.033,-50.012,1.954,10.549,-15.238,-19.927,10.549,6.642,6.642,83.223,-19.927,53.138,17.192,57.045,-20.708,17.973,7.814,20.708,-137.924,44.933,17.192
44.542,-7.033,-9.377,-42.589,-1.172,14.066,-21.88,-7.033,0.391,10.159,6.252,103.932,-22.271,62.906,14.457,66.813,-17.192,17.973,10.159,15.238,-145.739,64.078,14.457
47.277,-4.689,-13.675,-41.416,1.563,15.238,-20.708,-9.768,-8.987,16.801,5.47,116.435,-21.88,80.879,-1.172,73.455,-10.94,19.536,14.457,11.722,-138.315,82.051,-1.172
45.324,-1.954,-10.94,-44.542,1.954,18.755,-21.49,-12.503,-42.979,22.271,8.205,98.852,-58.608,66.813,23.834,54.701,-7.033,16.801,11.722,4.298,-120.733,54.701,23.834
42.589,-2.735,-10.94,-45.714,2.344,17.192,-25.397,-11.722,-7.424,26.96,9.377,84.786,-25.788,59.389,46.496,35.946,-7.424,10.94,11.722,1.172,-117.607,41.026,46.496
40.244,-11.331,-11.331,-37.118,3.516,11.331,-23.834,-12.503,15.238,20.317,7.033,96.899,0.391,54.701,34.774,49.621,-6.252,9.768,12.112,10.94,-113.7,49.621,34.774
33.993,-13.675,-9.377,-37.9,4.298,10.549,-19.927,-23.834,35.556,18.364,7.814,94.164,21.49,37.9,44.151,52.747,-6.642,8.205,10.159,20.317,-103.932,35.946,44.151
22.271,-9.377,-2.735,-39.072,0.391,12.503,-21.099,-22.271,44.933,14.066,9.377,82.051,19.536,42.979,43.761,44.933,-11.331,3.126,3.516,12.894,-96.899,41.416,43.761
17.192,-10.549,-5.079,-32.821,-3.126,9.768,-25.006,-14.066,23.443,9.768,7.033,88.303,-18.364,62.906,34.383,51.184,-16.801,3.516,5.861,8.205,-99.634,58.608,34.383
15.238,-15.629,-8.987,-28.913,-3.126,0.391,-18.755,-17.582,15.238,11.722,2.344,96.117,-24.615,69.158,25.788,57.045,-19.927,3.907,9.768,15.238,-100.024,67.985,25.788
10.549,-17.973,-14.066,-20.317,-3.907,-10.94,-15.238,-12.112,9.768,16.801,-2.735,89.866,-28.913,76.581,19.927,46.886,-19.145,-2.735,14.847,6.252,-76.581,70.33,19.927
0.391,-36.337,-23.053,-5.861,-13.675,-38.291,-25.788,12.503,-1.172,8.987,-25.006,101.197,-47.668,80.488,21.49,29.695,-20.317,-22.662,23.834,-16.02,-42.979,72.283,21.49
-0.781,-39.853,-26.569,-12.112,-11.722,-47.277,-23.834,1.563,2.344,12.503,-28.523,87.912,-47.668,67.595,42.589,12.894,-9.768,-29.304,27.35,-14.847,-33.993,54.31,42.589
5.079,-30.085,-21.49,-35.165,1.954,-36.728,-17.973,-30.085,3.907,17.192,-15.629,43.761,-37.118,38.681,46.886,0.781,-1.563,-28.913,22.271,-1.954,-36.337,27.741,46.886
16.41,-37.509,-29.695,-34.774,12.112,-28.523,-32.039,-37.9,10.549,6.642,-8.987,42.198,-30.476,20.317,38.291,23.834,-5.47,-33.211,30.476,15.238,-71.502,25.006,38.291
26.178,-32.821,-37.118,-42.589,19.927,-18.364,-37.509,-51.184,21.88,0.391,-1.563,44.151,-14.847,-1.563,41.026,41.807,-5.47,-30.476,37.9,29.304,-92.991,7.814,41.026
26.569,-28.523,-41.807,-47.668,19.536,-10.159,-37.9,-63.297,25.397,0,0,32.039,0.391,7.424,9.768,39.072,-5.079,-28.913,42.589,35.165,-94.554,25.397,9.768
32.43,-36.337,-51.966,-34.774,16.801,-12.894,-46.496,-48.84,23.053,-2.735,-8.205,33.211,-0.391,18.364,-7.033,34.774,-4.689,-32.43,52.747,30.476,-94.945,36.337,-7.033
25.397,-33.993,-40.244,-43.761,7.424,-11.722,-41.416,-47.668,16.801,3.516,-13.675,43.761,7.424,16.41,-13.284,40.244,-2.344,-28.913,41.026,26.178,-78.144,33.211,-13.284
28.132,-30.085,-24.615,-42.979,9.768,-5.861,-33.602,-39.853,-1.954,12.112,-8.987,49.621,-1.563,21.099,-17.192,48.84,1.954,-18.755,25.397,28.523,-74.237,32.039,-17.192
21.099,-32.039,-30.867,-40.244,0,-5.861,-35.946,-40.244,17.973,12.894,-14.457,37.118,25.788,43.761,-51.575,36.337,-2.344,-20.317,31.648,28.132,-73.455,63.687,-51.575
15.629,-32.039,-26.178,-37.509,-9.768,-5.861,-36.337,-27.741,14.457,8.205,-17.192,44.542,16.801,20.708,-22.662,36.337,-5.079,-18.364,26.96,16.02,-62.125,33.602,-22.662
21.88,-27.35,-24.225,-40.244,-8.205,5.47,-26.96,-40.244,15.238,5.47,-12.503,48.449,16.801,15.238,-18.755,44.933,2.735,-9.377,25.006,26.96,-66.032,26.96,-18.755
30.476,-29.695,-34.774,-42.979,-5.47,12.503,-27.741,-57.827,23.834,3.126,-11.331,43.761,29.695,8.987,-28.132,50.403,7.424,-7.814,35.556,40.244,-74.628,25.397,-28.132
28.913,-21.88,-23.053,-48.449,-3.907,14.847,-32.039,-44.542,8.596,-2.735,-16.41,49.231,-2.735,11.722,-19.145,49.621,4.298,-14.066,23.834,27.35,-71.502,19.536,-19.145
26.96,-16.801,-11.331,-37.9,-1.563,13.284,-30.085,-21.49,8.205,-2.735,-23.443,58.999,-10.159,24.225,-23.834,52.357,6.642,-12.112,12.112,14.847,-52.357,23.053,-23.834
21.88,-22.662,-15.238,-27.741,-4.298,0.391,-22.271,-17.192,45.324,2.735,-30.476,57.436,35.165,37.9,-40.244,42.589,7.033,-11.722,16.02,17.192,-42.979,42.589,-40.244
18.755,-38.291,-13.675,-11.331,-8.987,-21.88,-17.582,4.298,50.794,4.689,-47.277,80.879,39.853,46.496,-39.853,44.151,4.689,-15.238,14.457,5.079,-14.457,46.496,-39.853
11.722,-36.728,-2.344,-13.675,-18.364,-21.49,-12.503,12.503,34.383,11.722,-44.542,76.19,19.536,72.674,-39.463,27.35,14.847,-11.722,3.126,-8.987,11.331,52.357,-39.463
23.443,-30.867,0.391,-27.35,-11.722,-8.205,-6.252,-7.424,21.49,19.927,-28.913,55.092,20.708,80.879,-50.403,18.755,25.397,0,0.391,0.781,0.391,63.297,-50.403
29.304,-28.132,-7.033,-18.755,-7.424,4.298,-12.503,-9.768,-0.781,20.317,-12.894,61.734,9.377,43.37,-27.741,44.933,20.317,3.516,7.814,21.88,-29.304,30.085,-27.741
23.053,-15.238,-7.033,-23.053,-10.94,14.066,-10.94,-15.629,0.781,24.615,-4.298,60.171,17.192,52.747,-41.807,53.919,21.099,6.642,7.814,19.927,-40.635,48.84,-41.807
25.006,-16.41,-6.642,-13.284,-7.424,16.02,-9.377,-12.503,2.344,26.178,0.781,65.25,25.006,9.768,-5.861,67.204,21.88,8.596,7.424,28.523,-52.747,16.801,-5.861
18.364,-19.145,-7.814,-10.159,-11.722,9.768,-5.079,-12.503,8.205,25.788,3.516,58.999,27.35,3.516,8.205,58.608,18.364,10.159,8.596,32.43,-53.138,6.642,8.205
4.689,-27.741,-5.861,-9.768,-23.834,0.391,-7.033,-10.159,16.801,14.066,0.391,50.403,23.443,11.331,3.126,44.933,17.582,8.987,6.642,30.085,-40.635,8.596,3.126
15.238,-32.43,1.954,-8.596,-7.814,-3.516,-1.954,-9.768,16.41,9.768,3.126,57.045,28.132,2.735,6.642,51.184,18.755,13.675,-1.172,37.118,-38.681,5.47,6.642
25.788,-37.9,1.563,-5.079,4.689,-6.252,1.172,-14.847,27.35,4.689,3.907,67.985,50.403,-3.907,-6.252,67.595,14.847,17.582,-0.781,45.714,-38.291,9.768,-6.252
18.364,-35.165,-3.126,4.298,0,-10.549,-0.391,-4.689,30.476,-8.205,-3.126,63.687,30.867,10.159,-13.675,56.264,9.768,9.377,3.907,33.211,-32.039,21.88,-13.675
5.079,-30.867,-10.94,3.126,-12.894,-11.331,-0.391,-9.377,34.383,-7.424,-9.768,54.31,23.834,14.066,-7.814,43.37,8.205,4.689,11.722,23.443,-22.662,16.02,-7.814
12.503,-30.085,-0.391,-3.907,-9.377,-1.172,8.596,-19.927,25.788,-0.781,-4.689,52.357,25.006,-2.735,-2.344,53.919,8.205,12.112,1.172,32.821,-31.258,6.252,-2.344
1.563,-25.006,-1.954,-3.516,-20.708,0.781,10.94,-20.317,16.41,-4.298,-3.516,60.562,17.973,-8.205,-6.642,66.813,4.298,19.927,2.735,31.258,-34.383,6.252,-6.642
-6.252,-24.225,2.735,5.861,-23.443,-1.172,3.516,-0.781,51.575,-5.079,-11.331,72.674,48.84,1.563,-10.94,68.376,-3.126,17.582,-1.954,16.41,-12.894,2.344,-10.94
-2.344,-17.973,14.066,7.424,-7.814,-10.549,6.252,13.675,34.383,-1.954,-18.364,81.661,27.35,38.681,-35.556,65.641,-5.47,15.629,-13.284,0.781,-11.331,46.105,-35.556
-16.02,-19.927,11.331,30.476,-10.159,-28.913,10.159,35.556,29.695,-10.159,-31.258,106.667,20.708,32.43,-37.9,79.316,-0.391,13.675,-10.549,-8.987,9.768,44.151,-37.9
-30.476,-15.629,1.563,29.695,-19.927,-35.556,11.331,28.913,14.457,-10.549,-40.244,94.945,-12.112,56.654,-44.151,57.827,3.516,4.298,-0.781,-18.755,20.317,53.919,-44.151
-33.993,-3.907,12.894,4.298,-23.053,-23.443,15.238,8.596,3.126,-5.079,-25.788,68.767,-28.132,46.496,-12.112,35.165,15.629,3.907,-12.112,-23.053,17.192,39.853,-12.112
-14.066,6.252,1.172,-5.47,-7.424,1.172,7.424,-14.457,19.927,-10.94,-9.377,60.562,-4.689,17.973,-1.172,48.059,18.755,14.847,-0.391,-1.954,-15.238,17.973,-1.172
-12.894,13.284,-2.344,-8.205,-11.331,17.582,6.642,-23.834,32.43,-12.894,3.907,52.357,9.377,17.973,5.47,43.761,20.317,19.927,3.126,1.172,-25.006,14.847,5.47
-5.47,19.145,16.02,-17.192,-3.907,28.132,7.814,-19.145,42.589,-12.112,10.549,58.608,30.476,25.006,-8.987,53.529,20.708,20.708,-15.238,2.735,-26.96,26.569,-8.987
0.391,13.284,7.814,-7.814,0,25.788,4.298,-15.238,48.449,-9.377,7.424,73.455,51.184,-0.391,2.344,66.032,21.88,17.973,-7.033,8.987,-26.178,11.331,2.344
3.516,11.722,4.298,-1.172,2.735,21.099,4.689,-9.768,26.96,-10.94,1.563,60.562,32.43,-2.344,1.563,45.324,23.053,10.94,-3.516,3.907,-5.861,5.861,1.563
4.689,14.066,5.47,-9.768,4.689,20.708,2.735,-14.847,-1.954,-10.159,-2.344,44.933,2.344,-2.344,2.735,26.178,22.662,4.298,-4.689,2.344,0.391,3.907,2.735
10.94,11.722,9.377,-11.331,10.94,20.708,3.516,-14.847,8.596,-12.894,-4.689,57.436,17.192,-8.596,0,39.853,24.225,5.47,-8.596,8.596,-2.735,7.424,0
16.41,8.987,6.252,-4.689,19.536,17.582,3.907,-15.238,20.708,-16.41,-9.768,69.158,32.821,-9.768,-13.284,54.31,22.662,1.954,-5.47,14.847,-5.47,13.284,-13.284
1.954,14.066,11.331,-6.252,11.331,15.629,0.391,-6.252,0.391,-18.364,-9.768,57.827,-4.298,9.377,-16.02,42.198,19.536,-6.252,-10.549,5.079,-6.252,21.099,-16.02
3.907,12.112,9.768,-10.159,15.238,16.41,-7.033,-8.987,34.774,-16.02,-6.642,51.575,22.662,29.695,-30.476,42.198,17.192,-10.549,-8.987,2.735,-7.424,30.867,-30.476
-3.907,3.126,2.735,5.079,8.987,9.768,-7.814,-3.126,39.072,-9.377,-3.907,61.343,37.118,-19.927,11.331,57.827,13.675,-9.768,-1.954,13.284,-14.847,-14.457,11.331
-15.238,-3.516,-1.563,10.94,-2.735,1.172,-6.642,-2.344,20.708,-4.298,-2.344,61.734,20.708,-17.192,15.629,55.873,13.284,-8.987,2.344,15.238,-14.457,-14.847,15.629
-12.112,-5.861,0.391,14.847,2.735,-7.424,-9.377,9.768,31.648,-5.47,-5.47,67.985,20.317,7.814,13.675,45.714,12.503,-11.331,0.391,-1.172,8.987,-4.298,13.675
-25.397,-14.847,-6.252,37.509,-8.596,-30.867,-7.814,37.509,13.284,-2.344,-21.49,84.005,0,28.913,11.722,32.821,9.377,-19.536,7.033,-22.271,30.867,19.927,11.722
-21.099,-20.317,-5.079,38.291,-1.954,-39.072,1.563,29.304,1.563,3.907,-21.099,75.018,-4.298,44.151,-3.126,23.443,21.49,-19.145,5.861,-18.364,46.105,31.648,-3.126
3.126,-5.861,-0.781,17.192,26.178,-20.708,4.298,3.126,14.457,8.987,-9.377,47.668,14.066,48.059,-12.112,11.331,32.039,-18.364,1.563,-19.145,50.012,37.509,-12.112
1.563,-7.814,-1.954,16.41,20.708,-2.344,-6.642,-2.735,23.834,5.47,-4.298,57.827,37.118,14.847,-7.033,39.072,33.993,-17.192,2.735,3.516,22.662,21.099,-7.033
2.344,-4.689,1.954,12.112,15.238,12.894,-6.252,-10.94,33.993,7.424,3.126,51.575,54.701,5.47,-13.675,49.621,39.463,-10.94,-1.172,19.145,8.205,15.629,-13.675
31.258,-0.391,1.563,11.722,37.118,25.788,-7.424,-10.94,39.853,5.861,6.252,48.059,56.654,15.238,-22.662,52.357,42.589,-7.033,-0.781,22.271,1.563,19.536,-22.662
30.085,-0.781,2.735,18.755,32.039,28.523,-9.768,-0.391,28.913,7.033,1.954,65.641,51.966,0,-12.503,65.641,42.979,-8.205,-1.954,19.145,1.563,12.112,-12.503
29.304,-1.954,0.391,20.708,30.867,24.615,-5.079,-3.516,40.244,2.735,0,74.237,66.422,14.847,-33.602,70.33,42.198,-8.205,0.391,17.973,8.205,32.43,-33.602
48.059,-1.172,0.391,20.317,51.966,21.88,-3.516,-3.516,35.946,2.344,5.079,58.217,50.794,-7.033,7.814,50.403,38.681,-10.159,0.391,7.424,13.675,1.954,7.814
12.503,1.563,2.735,14.066,21.88,19.145,-6.642,-2.735,10.94,-4.689,5.861,51.184,19.927,-7.033,9.768,40.635,31.258,-10.94,-1.954,-2.344,23.834,-2.344,9.768
-12.894,-5.079,0.391,16.801,-3.126,9.377,-4.298,-3.126,23.053,-10.94,4.298,71.502,36.337,-6.642,-1.563,60.171,28.523,-6.642,0.391,7.424,18.364,1.172,-1.563
-1.172,-8.596,-0.391,14.457,7.814,6.252,0.781,-11.331,21.099,-5.47,9.768,74.237,39.853,-12.112,4.298,68.767,27.35,-1.563,1.172,17.582,9.377,-5.47,4.298
3.516,-0.781,-0.391,7.814,12.503,12.503,-3.907,-11.722,12.503,-5.47,16.41,63.687,28.913,-3.516,3.126,58.608,26.96,-5.079,1.172,12.112,4.298,0.391,3.126
-9.768,1.172,-4.298,15.238,1.954,10.159,-8.205,-2.735,21.099,-5.079,16.41,72.283,33.211,5.47,6.642,59.389,24.225,-6.642,5.079,7.033,-1.954,10.94,6.642
13.284,-3.907,-5.47,27.741,26.96,3.907,-2.735,2.344,28.913,5.079,13.675,79.707,41.026,-9.377,37.9,58.999,19.927,-1.954,6.252,4.298,-7.814,6.642,37.9
1.954,-8.205,-7.424,35.165,17.192,-8.205,1.172,10.159,16.02,10.549,7.424,82.833,26.96,0,38.291,52.747,15.238,-3.516,8.205,-7.033,7.033,13.675,38.291
-25.397,-17.973,-16.801,54.701,-7.814,-38.291,-2.735,42.198,-3.907,1.172,-19.536,104.713,-10.94,32.821,19.927,40.635,0.391,-12.503,17.582,-35.556,41.026,40.244,19.927
-19.927,-25.006,-17.582,45.324,-0.781,-48.449,0.391,30.085,30.867,-6.642,-34.383,105.495,23.053,28.523,11.331,32.821,-11.331,-9.377,18.364,-33.211,54.701,38.681,11.331
-8.205,-20.708,-16.02,22.271,6.642,-41.416,10.94,-1.563,58.999,-11.331,-20.708,67.595,48.449,25.397,3.907,15.629,-20.317,-6.642,16.801,-19.927,49.621,31.258,3.907
0.781,-19.927,-26.96,14.457,11.722,-24.225,-1.172,-18.364,66.032,-26.178,-12.503,62.906,51.575,12.894,-7.814,33.211,-34.383,-4.689,27.741,3.907,14.457,24.225,-7.814
19.145,-14.066,-17.973,0,28.523,-9.768,-1.954,-31.258,73.455,-30.867,-5.47,65.25,63.687,-2.344,-7.814,48.449,-35.556,0.391,18.755,14.457,-6.642,17.192,-7.814
40.635,-6.642,-17.973,-3.516,43.37,0.391,0.391,-32.821,63.297,-28.523,0.391,53.138,55.092,-10.549,-3.907,46.886,-33.211,3.907,18.755,20.708,-24.615,9.768,-3.907
16.41,-6.642,-23.834,0.391,14.457,-0.781,-3.516,-23.443,23.053,-26.96,-1.954,55.092,13.284,1.954,-11.722,44.542,-31.648,3.516,24.615,18.364,-31.258,17.582,-11.722
24.225,-3.516,-19.145,-5.47,16.801,-0.781,-0.391,-21.099,52.357,-33.602,-8.987,71.893,43.37,-3.907,-14.066,55.482,-28.132,5.47,19.927,16.41,-33.211,17.192,-14.066
28.523,-1.563,-16.41,-5.079,19.145,4.298,5.079,-25.788,55.092,-28.132,-5.47,73.846,53.919,-29.695,14.066,55.482,-25.397,9.768,17.192,17.192,-31.648,-0.391,14.066
32.821,0,-18.755,-5.47,21.88,8.205,1.563,-25.397,55.482,-31.258,-1.954,58.217,40.244,-6.252,5.47,39.853,-26.569,7.424,19.536,10.549,-29.695,11.331,5.47
39.072,3.907,-13.675,-5.079,28.913,8.205,0.781,-16.801,53.919,-29.695,-1.954,59.78,36.337,5.861,2.344,35.946,-23.053,8.596,14.457,0.391,-24.225,17.973,2.344
53.919,7.814,-3.907,-5.861,47.277,8.987,10.549,-16.02,39.072,-21.88,2.735,64.078,35.556,-5.079,8.596,44.542,-16.02,20.317,4.689,6.252,-25.006,10.159,8.596
55.873,8.596,-3.516,-9.768,51.184,11.331,12.894,-25.788,48.84,-17.582,13.284,56.654,46.496,0,5.47,49.621,-12.503,26.569,4.298,17.582,-35.165,12.503,5.47
55.482,7.033,-7.814,-6.252,50.794,7.814,3.516,-14.457,39.463,-15.238,12.894,61.343,33.993,17.192,-2.344,49.621,-17.192,20.708,8.596,11.331,-38.291,26.178,-2.344
42.979,7.814,-7.424,3.516,40.635,2.735,0.781,0.391,32.43,-14.066,10.549,71.111,23.834,21.88,4.689,50.012,-15.629,19.145,8.205,-0.391,-29.304,28.132,4.689
24.615,2.344,-6.252,8.596,24.225,-3.907,6.642,1.172,44.151,-9.377,8.987,67.204,32.039,28.913,5.47,43.761,-7.033,17.973,7.033,-5.861,-16.02,32.821,5.47
13.675,-9.377,-7.424,25.397,14.066,-25.006,9.768,21.49,30.476,-0.391,-8.596,84.786,24.615,61.734,-22.662,42.589,-5.47,8.596,8.205,-21.88,13.284,64.078,-22.662
1.563,-2.735,5.861,15.629,6.252,-30.085,13.284,29.304,13.675,-2.344,-17.192,79.316,4.298,38.291,5.861,24.225,0.781,5.861,-5.079,-39.853,41.807,32.43,5.861
8.205,5.079,16.41,-10.159,15.238,-19.927,19.927,3.126,18.364,5.861,-7.033,44.542,10.549,41.416,13.675,-4.298,8.596,14.457,-15.629,-30.085,37.9,30.085,13.675
25.397,5.47,9.377,-9.377,33.602,-7.814,8.596,-3.907,29.304,-8.987,-1.563,42.979,21.88,23.053,2.344,12.894,-5.47,13.284,-8.596,-5.861,6.252,27.741,2.344
32.821,7.424,7.814,-10.94,40.635,0.391,1.954,-7.033,19.145,-19.927,4.298,41.026,12.894,1.172,12.894,17.192,-14.457,14.066,-7.033,3.516,-1.954,10.94,12.894
25.006,8.205,9.377,-10.549,30.867,6.642,2.735,-8.987,49.621,-23.443,9.377,50.012,50.012,-5.47,11.331,30.085,-16.41,17.192,-8.596,13.284,-12.894,14.457,11.331
7.814,7.814,3.126,1.563,9.377,8.987,2.735,-0.781,46.105,-26.178,9.377,53.919,46.105,14.457,-8.205,31.648,-18.755,17.973,-2.344,13.675,-7.814,30.085,-8.205
8.205,13.284,7.814,1.172,2.344,11.331,8.987,7.033,32.821,-19.145,8.987,58.217,38.681,23.834,-9.768,28.913,-11.722,21.49,-7.033,2.344,10.159,23.053,-9.768
14.847,21.88,16.02,-6.252,2.735,21.49,16.41,4.689,10.549,-3.126,14.847,73.455,34.774,22.662,-2.344,41.026,1.954,31.258,-15.238,0.391,14.066,16.41,-2.344
23.053,25.788,13.284,-2.344,5.079,29.304,19.145,6.252,-5.079,1.954,17.192,86.74,27.741,37.9,-25.006,60.171,12.894,37.118,-12.503,5.47,7.424,31.648,-25.006
39.463,32.039,8.987,-3.126,18.755,30.085,14.066,12.112,9.768,1.563,14.457,82.442,41.807,16.02,-2.735,53.138,16.02,29.695,-8.205,-5.47,7.814,6.252,-2.735
58.608,39.463,9.377,-1.563,37.118,32.821,12.112,21.49,4.298,7.033,18.364,70.33,26.178,1.563,33.602,39.463,23.053,27.35,-8.596,-16.41,5.47,-17.973,33.602
35.165,31.258,-3.126,-2.344,13.675,31.648,10.159,4.298,12.112,8.205,21.88,66.813,41.807,11.331,5.079,51.966,25.788,29.304,3.907,6.252,-16.801,1.954,5.079
43.37,22.271,-4.298,4.689,22.271,27.35,8.987,5.861,18.755,9.768,22.662,75.409,58.608,-8.596,8.205,69.158,24.615,28.913,5.079,16.41,-21.099,-11.331,8.205
35.165,13.675,-3.907,15.629,14.066,19.145,2.344,24.225,7.814,13.675,17.582,85.568,45.324,5.47,10.94,64.078,23.443,23.443,4.689,3.907,-3.126,-4.298,10.94
37.509,4.689,-8.205,23.834,16.801,9.377,0,31.648,-7.814,14.457,6.642,92.601,28.913,39.072,-18.364,58.217,26.178,19.927,8.987,-1.954,15.238,32.039,-18.364
33.993,-10.549,-12.503,45.324,11.331,-12.112,5.079,50.403,3.126,9.377,-10.94,112.527,51.184,24.615,-30.085,68.376,26.178,14.457,13.284,-5.861,46.105,24.225,-30.085
27.741,-5.861,-1.563,44.933,7.424,-15.629,13.675,57.045,1.954,12.112,-14.457,102.369,37.118,33.211,-13.284,44.933,31.258,8.987,2.344,-24.225,70.72,19.145,-13.284
29.695,4.298,3.516,16.801,11.331,-4.298,17.582,28.913,-0.781,12.894,-5.861,74.628,24.225,46.105,-21.099,32.039,35.556,9.377,-2.735,-21.099,64.469,23.443,-21.099
14.066,9.768,12.894,7.033,0,7.814,15.629,20.317,12.894,5.079,0.781,79.707,42.979,17.192,-24.225,62.515,25.397,13.284,-12.112,-0.391,33.211,3.516,-24.225
17.973,19.145,14.457,4.298,7.033,17.192,15.238,15.238,11.722,7.814,8.987,67.595,34.383,3.907,5.47,54.31,21.88,14.847,-13.675,3.516,10.159,-7.814,5.47
44.151,21.099,7.424,-1.954,30.476,23.443,11.331,4.689,-1.954,7.033,11.722,66.032,21.099,-0.781,5.861,58.217,18.364,14.847,-6.642,10.549,-5.079,-4.298,5.861
55.092,19.145,0.391,0.781,40.244,20.708,10.549,4.298,-5.079,1.172,5.079,78.926,30.476,-22.662,3.907,70.33,14.457,12.894,0.391,16.801,-1.954,-15.238,3.907
35.165,21.099,-1.954,0.781,19.145,14.457,12.112,8.205,2.344,-3.907,4.298,63.297,23.834,1.563,-4.689,46.496,13.284,8.987,2.735,10.549,-5.079,4.298,-4.689
36.337,25.788,-4.298,-10.94,15.629,14.847,12.503,2.735,-3.126,-10.94,4.298,49.621,9.768,15.238,-14.066,29.304,12.112,8.987,5.079,5.079,1.172,5.079,-14.066
24.615,26.178,1.563,-15.238,0.781,16.41,15.238,3.907,16.02,-17.192,2.344,66.813,42.979,0.391,-22.271,48.449,11.331,13.284,-0.781,11.331,-1.954,-1.563,-22.271
21.099,26.569,0.781,-11.722,-4.298,17.582,16.02,5.861,20.317,-14.847,1.563,79.707,54.701,21.099,-48.449,60.171,13.284,14.066,0,13.675,-7.814,21.88,-48.449
41.807,26.569,-3.907,-12.503,16.02,20.317,9.768,3.516,-2.735,-12.894,1.954,67.985,30.085,-0.781,-18.755,44.151,17.192,5.079,4.689,3.126,4.298,-5.861,-18.755
51.184,32.039,0.781,-21.099,26.569,31.258,4.689,-1.563,-11.722,-9.768,8.205,59.389,16.02,-10.94,5.079,35.946,23.053,3.516,0,1.563,-2.735,-18.364,5.079
51.966,30.085,-2.344,-18.364,30.476,30.867,4.689,-5.861,-10.159,-8.596,8.596,66.813,19.536,-10.159,-2.735,50.012,23.053,4.298,3.126,12.112,-20.317,-10.159,-2.735
32.43,25.006,-2.735,-15.238,15.238,21.099,5.861,-3.126,-20.708,-7.424,6.252,67.985,4.689,-8.205,1.954,49.231,17.582,2.735,3.516,7.033,-17.192,-9.377,1.954
30.867,26.178,0.781,-16.02,16.02,12.112,3.907,8.205,-11.722,-8.987,-2.344,71.893,0.391,14.847,-0.781,33.993,13.675,0.391,0,-8.987,-3.126,3.516,-0.781
7.033,18.364,-3.907,1.563,-3.516,-10.159,1.954,35.556,-14.066,-12.503,-23.834,91.429,-7.424,31.648,-8.596,24.225,3.907,-7.033,4.689,-33.211,23.834,17.192,-8.596
21.49,16.41,2.735,0.781,16.801,-18.755,16.02,26.569,-24.615,-3.126,-20.317,76.19,-18.364,37.509,-3.516,12.503,8.987,-6.642,-1.954,-42.198,57.436,4.689,-3.516
48.059,25.397,10.94,-19.145,45.324,-1.172,20.708,0.391,16.02,-6.252,-10.549,48.449,9.768,53.138,-15.629,0,17.582,-6.642,-10.159,-33.211,43.37,23.443,-15.629
3.126,27.35,5.47,-18.755,2.735,12.894,8.596,-7.814,28.913,-17.582,-5.47,62.125,22.271,17.973,-6.252,34.774,8.205,-7.424,-4.689,-16.02,8.987,7.424,-6.252
-7.814,34.774,8.205,-18.755,-3.126,25.397,11.331,-17.582,46.105,-16.41,0.781,52.747,31.648,14.066,-3.126,41.026,8.596,-2.735,-7.424,-9.377,-1.172,5.079,-3.126
-1.172,40.244,7.424,-17.582,3.907,32.43,10.159,-18.755,61.734,-19.536,0,48.84,38.291,34.774,-23.053,42.979,4.689,-3.516,-6.642,-4.689,-23.443,33.993,-23.053
10.549,39.463,5.079,-4.298,19.927,30.085,5.47,-5.079,57.045,-19.145,-5.079,71.111,38.291,-6.642,17.192,54.31,0,-6.252,-4.298,-5.861,-28.523,4.689,17.192
43.761,46.105,15.238,-6.642,59.389,28.913,12.894,-3.126,53.138,-13.284,-5.861,78.144,34.383,-1.954,19.927,59.389,0.781,-0.781,-14.457,-10.159,-19.145,4.689,19.927
49.621,45.324,15.238,-8.987,63.687,25.397,15.629,-3.907,35.946,-16.02,-3.126,60.952,17.192,9.768,7.033,42.589,-5.079,-1.563,-14.457,-10.159,-16.02,12.503,7.033
36.337,45.714,18.755,-7.033,50.794,26.569,12.112,3.126,30.476,-24.615,-1.954,60.562,5.861,16.41,4.298,36.728,-12.894,1.172,-17.973,-15.238,-7.814,12.112,4.298
4.689,39.853,15.629,-1.954,15.238,21.099,18.364,2.344,23.053,-30.085,-2.735,75.018,12.112,-1.954,0.391,55.092,-15.238,13.284,-14.847,-13.284,8.205,-1.172,0.391
8.205,35.946,14.847,-0.391,14.457,21.88,27.35,-5.47,17.582,-25.006,3.907,72.674,15.238,19.536,-24.225,59.78,-13.284,23.443,-14.066,-4.298,5.079,22.271,-24.225
36.728,40.635,12.503,-1.172,41.807,32.43,19.536,-4.689,32.821,-23.834,10.94,62.906,30.867,10.159,-12.894,55.482,-9.377,23.053,-11.722,-4.689,8.205,4.298,-12.894
75.8,39.853,3.516,7.033,78.926,34.383,12.112,1.563,38.681,-11.331,11.331,64.469,36.337,0.391,10.549,57.827,-4.689,25.006,-2.735,-2.735,-4.298,-7.424,10.549
73.065,33.993,12.112,12.503,77.753,29.304,20.317,5.079,33.993,3.907,14.457,68.376,40.244,24.615,-6.642,63.297,1.563,30.476,-11.331,1.563,-6.642,19.927,-6.642
61.343,31.648,18.755,17.192,64.86,23.834,25.397,14.847,37.9,12.894,13.675,69.158,45.324,21.099,8.987,59.389,7.424,31.648,-17.973,-4.689,1.172,8.987,8.987
27.741,28.132,19.145,32.039,32.821,8.596,22.662,42.589,42.589,24.225,-2.344,83.614,40.635,44.542,29.304,33.211,8.987,28.913,-18.364,-35.165,34.774,19.927,29.304
48.449,32.039,30.085,22.662,51.575,3.126,39.072,40.244,29.695,38.291,1.172,75.018,35.946,65.25,27.741,16.41,20.708,36.728,-29.304,-42.198,54.31,30.085,27.741
88.694,49.231,23.053,3.126,92.21,23.834,37.509,9.768,55.873,42.198,14.457,43.37,61.343,67.595,25.006,2.344,28.132,41.026,-22.271,-26.178,35.556,24.225,25.006
